##TITLE=No Description
##DATA TYPE=INFRARED SPECTRUM
##XUNITS=1/CM
##YUNITS=%T
399.460154  	31.896478 
400.897061  	29.378754 
402.333968  	30.119613 
403.770875  	30.519389 
405.207782  	30.988828 
406.644689  	31.576660 
408.081596  	30.335488 
409.518503  	31.240049 
410.955410  	31.580199 
412.392317  	29.968946 
413.829224  	30.586934 
415.266131  	30.839346 
416.703038  	30.408187 
418.139945  	30.702875 
419.576852  	30.231603 
421.013759  	31.029116 
422.450666  	30.614301 
423.887574  	29.202486 
425.324481  	30.214604 
426.761388  	30.647706 
428.198295  	30.730120 
429.635202  	31.487900 
431.072109  	30.743681 
432.509016  	30.675774 
433.945923  	31.085812 
435.382830  	30.346699 
436.819737  	30.507224 
438.256644  	30.647156 
439.693551  	30.629991 
441.130458  	31.385484 
442.567365  	30.949008 
444.004272  	30.945269 
445.441179  	31.592441 
446.878086  	31.485639 
448.314993  	31.908004 
449.751900  	31.521545 
451.188807  	30.896537 
452.625714  	31.319571 
454.062621  	30.832808 
455.499528  	30.540540 
456.936435  	31.031658 
458.373342  	30.826794 
459.810249  	31.197183 
461.247156  	31.191637 
462.684063  	30.952752 
464.120970  	31.654882 
465.557877  	31.650814 
466.994784  	31.466037 
468.431691  	31.677821 
469.868598  	31.514384 
471.305505  	31.939939 
472.742413  	32.062287 
474.179320  	31.492695 
475.616227  	31.644478 
477.053134  	31.519973 
478.490041  	31.492863 
479.926948  	31.916074 
481.363855  	31.864260 
482.800762  	32.035311 
484.237669  	32.078818 
485.674576  	31.736988 
487.111483  	31.917817 
488.548390  	31.742888 
489.985297  	31.490633 
491.422204  	31.964803 
492.859111  	32.022322 
494.296018  	31.766321 
495.732925  	31.956495 
497.169832  	32.243401 
498.606739  	32.228526 
500.043646  	31.988041 
501.480553  	32.030386 
502.917460  	32.138862 
504.354367  	32.039391 
505.791274  	32.206828 
507.228181  	32.253753 
508.665088  	32.149718 
510.101995  	32.298863 
511.538902  	32.290059 
512.975809  	32.430302 
514.412716  	32.696048 
515.849623  	32.671502 
517.286530  	32.812995 
518.723437  	32.833595 
520.160344  	32.712702 
521.597251  	32.946531 
523.034159  	32.989051 
524.471066  	33.026175 
525.907973  	33.325460 
527.344880  	33.341240 
528.781787  	33.387183 
530.218694  	33.401823 
531.655601  	33.176265 
533.092508  	33.190240 
534.529415  	33.284166 
535.966322  	33.423892 
537.403229  	33.635664 
538.840136  	33.574136 
540.277043  	33.590844 
541.713950  	33.755628 
543.150857  	33.808999 
544.587764  	33.893043 
546.024671  	33.868019 
547.461578  	33.928879 
548.898485  	34.175539 
550.335392  	34.172906 
551.772299  	34.180004 
553.209206  	34.276748 
554.646113  	34.243037 
556.083020  	34.355347 
557.519927  	34.480727 
558.956834  	34.524867 
560.393741  	34.727650 
561.830648  	34.920827 
563.267555  	35.014754 
564.704462  	35.041685 
566.141369  	35.076355 
567.578276  	35.216874 
569.015183  	35.295519 
570.452090  	35.396325 
571.888997  	35.511561 
573.325905  	35.463228 
574.762812  	35.574859 
576.199719  	35.785380 
577.636626  	35.782651 
579.073533  	35.849382 
580.510440  	35.972002 
581.947347  	36.053145 
583.384254  	36.237795 
584.821161  	36.383612 
586.258068  	36.465651 
587.694975  	36.555886 
589.131882  	36.619386 
590.568789  	36.739529 
592.005696  	36.892834 
593.442603  	37.044843 
594.879510  	37.141576 
596.316417  	37.133510 
597.753324  	37.243341 
599.190231  	37.461744 
600.627138  	37.620455 
602.064045  	37.750285 
603.500952  	37.800801 
604.937859  	37.871047 
606.374766  	38.006958 
607.811673  	38.101101 
609.248580  	38.325138 
610.685487  	38.529833 
612.122394  	38.536289 
613.559301  	38.667184 
614.996208  	38.853748 
616.433115  	38.964727 
617.870022  	39.159638 
619.306929  	39.284818 
620.743836  	39.375702 
622.180744  	39.544681 
623.617651  	39.664957 
625.054558  	39.835099 
626.491465  	40.003688 
627.928372  	40.081232 
629.365279  	40.243169 
630.802186  	40.391830 
632.239093  	40.505311 
633.676000  	40.654212 
635.112907  	40.785785 
636.549814  	40.918778 
637.986721  	41.066850 
639.423628  	41.214334 
640.860535  	41.427616 
642.297442  	41.619369 
643.734349  	41.746274 
645.171256  	41.903600 
646.608163  	42.067240 
648.045070  	42.230347 
649.481977  	42.405479 
650.918884  	42.534119 
652.355791  	42.682093 
653.792698  	42.879835 
655.229605  	43.091023 
656.666512  	43.258391 
658.103419  	43.366434 
659.540326  	43.540594 
660.977233  	43.731345 
662.414140  	43.869017 
663.851047  	44.043816 
665.287954  	44.160825 
666.724861  	44.259765 
668.161768  	44.502141 
669.598675  	44.761069 
671.035582  	44.863655 
672.472490  	45.014291 
673.909397  	45.190213 
675.346304  	45.372655 
676.783211  	45.579823 
678.220118  	45.769125 
679.657025  	45.964072 
681.093932  	46.160802 
682.530839  	46.334546 
683.967746  	46.503973 
685.404653  	46.669268 
686.841560  	46.864316 
688.278467  	47.093095 
689.715374  	47.272514 
691.152281  	47.483138 
692.589188  	47.730536 
694.026095  	47.933908 
695.463002  	48.100945 
696.899909  	48.250362 
698.336816  	48.438416 
699.773723  	48.683348 
701.210630  	48.918574 
702.647537  	49.133908 
704.084444  	49.332677 
705.521351  	49.532390 
706.958258  	49.767121 
708.395165  	49.999203 
709.832072  	50.207235 
711.268979  	50.406962 
712.705886  	50.598108 
714.142793  	50.802626 
715.579700  	51.006652 
717.016607  	51.200431 
718.453514  	51.405969 
719.890421  	51.612616 
721.327328  	51.806555 
722.764236  	51.988873 
724.201143  	52.172750 
725.638050  	52.399880 
727.074957  	52.638478 
728.511864  	52.866067 
729.948771  	53.154565 
731.385678  	53.491462 
732.822585  	53.730530 
734.259492  	53.859849 
735.696399  	54.034342 
737.133306  	54.257091 
738.570213  	54.462068 
740.007120  	54.732740 
741.444027  	55.025372 
742.880934  	55.234218 
744.317841  	55.447031 
745.754748  	55.668643 
747.191655  	55.858782 
748.628562  	56.088274 
750.065469  	56.336148 
751.502376  	56.600090 
752.939283  	56.893847 
754.376190  	57.117894 
755.813097  	57.322755 
757.250004  	57.578027 
758.686911  	57.812297 
760.123818  	58.069899 
761.560725  	58.347552 
762.997632  	58.563205 
764.434539  	58.787791 
765.871446  	59.018609 
767.308353  	59.214853 
768.745260  	59.466689 
770.182167  	59.760896 
771.619075  	60.019196 
773.055982  	60.233165 
774.492889  	60.433275 
775.929796  	60.694707 
777.366703  	60.984365 
778.803610  	61.220998 
780.240517  	61.454108 
781.677424  	61.689757 
783.114331  	61.900914 
784.551238  	62.128488 
785.988145  	62.371833 
787.425052  	62.646169 
788.861959  	62.956417 
790.298866  	63.219946 
791.735773  	63.426759 
793.172680  	63.640039 
794.609587  	63.871291 
796.046494  	64.101893 
797.483401  	64.348517 
798.920308  	64.647128 
800.357215  	64.938867 
801.794122  	65.168057 
803.231029  	65.414676 
804.667936  	65.692466 
806.104843  	65.940003 
807.541750  	66.182366 
808.978657  	66.441236 
810.415564  	66.705492 
811.852471  	66.962425 
813.289378  	67.214553 
814.726285  	67.509283 
816.163192  	67.813025 
817.600099  	68.066854 
819.037006  	68.299521 
820.473913  	68.515397 
821.910821  	68.754006 
823.347728  	69.043288 
824.784635  	69.294680 
826.221542  	69.522684 
827.658449  	69.780553 
829.095356  	70.036415 
830.532263  	70.309471 
831.969170  	70.560285 
833.406077  	70.758860 
834.842984  	71.012588 
836.279891  	71.308537 
837.716798  	71.581767 
839.153705  	71.857727 
840.590612  	72.105630 
842.027519  	72.340765 
843.464426  	72.621587 
844.901333  	72.897346 
846.338240  	73.137817 
847.775147  	73.384530 
849.212054  	73.649128 
850.648961  	73.906439 
852.085868  	74.152887 
853.522775  	74.408734 
854.959682  	74.667551 
856.396589  	74.941901 
857.833496  	75.222485 
859.270403  	75.443706 
860.707310  	75.655404 
862.144217  	75.925535 
863.581124  	76.188581 
865.018031  	76.409728 
866.454938  	76.633662 
867.891845  	76.907712 
869.328752  	77.196476 
870.765660  	77.419177 
872.202567  	77.631005 
873.639474  	77.872325 
875.076381  	78.095717 
876.513288  	78.325356 
877.950195  	78.543320 
879.387102  	78.757650 
880.824009  	79.027067 
882.260916  	79.258731 
883.697823  	79.445179 
885.134730  	79.669575 
886.571637  	79.882840 
888.008544  	80.097961 
889.445451  	80.335603 
890.882358  	80.546677 
892.319265  	80.756108 
893.756172  	80.965759 
895.193079  	81.170122 
896.629986  	81.364287 
898.066893  	81.526916 
899.503800  	81.721219 
900.940707  	81.920631 
902.377614  	82.087145 
903.814521  	82.296412 
905.251428  	82.487665 
906.688335  	82.644992 
908.125242  	82.836317 
909.562149  	82.999629 
910.999056  	83.184960 
912.435963  	83.406059 
913.872870  	83.547810 
915.309777  	83.702415 
916.746684  	83.905318 
918.183591  	84.075106 
919.620498  	84.259252 
921.057406  	84.437672 
922.494313  	84.585195 
923.931220  	84.729448 
925.368127  	84.857169 
926.805034  	85.037567 
928.241941  	85.242903 
929.678848  	85.357958 
931.115755  	85.447531 
932.552662  	85.577030 
933.989569  	85.729939 
935.426476  	85.869394 
936.863383  	85.965918 
938.300290  	86.083660 
939.737197  	86.217839 
941.174104  	86.323410 
942.611011  	86.448626 
944.047918  	86.565053 
945.484825  	86.657615 
946.921732  	86.778484 
948.358639  	86.895924 
949.795546  	87.002676 
951.232453  	87.119478 
952.669360  	87.238392 
954.106267  	87.350436 
955.543174  	87.428192 
956.980081  	87.515994 
958.416988  	87.630588 
959.853895  	87.711515 
961.290802  	87.797796 
962.727709  	87.901740 
964.164616  	87.990338 
965.601523  	88.077059 
967.038430  	88.132958 
968.475337  	88.204381 
969.912244  	88.314375 
971.349152  	88.378767 
972.786059  	88.453267 
974.222966  	88.544903 
975.659873  	88.584884 
977.096780  	88.663005 
978.533687  	88.766039 
979.970594  	88.810166 
981.407501  	88.842818 
982.844408  	88.880143 
984.281315  	88.937024 
985.718222  	89.026001 
987.155129  	89.107284 
988.592036  	89.178331 
990.028943  	89.221997 
991.465850  	89.252070 
992.902757  	89.301461 
994.339664  	89.341941 
995.776571  	89.395044 
997.213478  	89.453042 
998.650385  	89.479146 
1000.087292  	89.512138 
1001.524199  	89.544139 
1002.961106  	89.600409 
1004.398013  	89.700909 
1005.834920  	89.743376 
1007.271827  	89.753568 
1008.708734  	89.790954 
1010.145641  	89.814406 
1011.582548  	89.857178 
1013.019455  	89.907685 
1014.456362  	89.931584 
1015.893269  	89.965011 
1017.330176  	89.989412 
1018.767083  	90.028451 
1020.203991  	90.090626 
1021.640898  	90.114174 
1023.077805  	90.139006 
1024.514712  	90.172106 
1025.951619  	90.181811 
1027.388526  	90.204538 
1028.825433  	90.232964 
1030.262340  	90.268758 
1031.699247  	90.302301 
1033.136154  	90.308589 
1034.573061  	90.325649 
1036.009968  	90.323670 
1037.446875  	90.318852 
1038.883782  	90.369766 
1040.320689  	90.402734 
1041.757596  	90.446947 
1043.194503  	90.517134 
1044.631410  	90.497520 
1046.068317  	90.474864 
1047.505224  	90.521294 
1048.942131  	90.558468 
1050.379038  	90.580350 
1051.815945  	90.581553 
1053.252852  	90.603580 
1054.689759  	90.645240 
1056.126666  	90.629890 
1057.563573  	90.649748 
1059.000480  	90.701744 
1060.437387  	90.698798 
1061.874294  	90.730465 
1063.311201  	90.766704 
1064.748108  	90.761526 
1066.185015  	90.779081 
1067.621922  	90.782029 
1069.058829  	90.790548 
1070.495737  	90.802114 
1071.932644  	90.773754 
1073.369551  	90.789840 
1074.806458  	90.808239 
1076.243365  	90.802471 
1077.680272  	90.843484 
1079.117179  	90.843527 
1080.554086  	90.832046 
1081.990993  	90.872415 
1083.427900  	90.871356 
1084.864807  	90.870303 
1086.301714  	90.877914 
1087.738621  	90.846243 
1089.175528  	90.843323 
1090.612435  	90.852621 
1092.049342  	90.871181 
1093.486249  	90.904700 
1094.923156  	90.882117 
1096.360063  	90.866532 
1097.796970  	90.887765 
1099.233877  	90.902088 
1100.670784  	90.937598 
1102.107691  	90.960628 
1103.544598  	90.970599 
1104.981505  	90.980450 
1106.418412  	90.962603 
1107.855319  	90.983151 
1109.292226  	91.013224 
1110.729133  	91.022540 
1112.166040  	91.074326 
1113.602947  	91.078880 
1115.039854  	91.053288 
1116.476761  	91.078616 
1117.913668  	91.061439 
1119.350575  	91.056560 
1120.787483  	91.094808 
1122.224390  	91.082205 
1123.661297  	91.090496 
1125.098204  	91.105467 
1126.535111  	91.088291 
1127.972018  	91.124816 
1129.408925  	91.158989 
1130.845832  	91.163398 
1132.282739  	91.169501 
1133.719646  	91.138011 
1135.156553  	91.116748 
1136.593460  	91.102447 
1138.030367  	91.071106 
1139.467274  	91.086969 
1140.904181  	91.109055 
1142.341088  	91.120053 
1143.777995  	91.142147 
1145.214902  	91.128731 
1146.651809  	91.121257 
1148.088716  	91.123597 
1149.525623  	91.096259 
1150.962530  	91.087829 
1152.399437  	91.082064 
1153.836344  	91.074456 
1155.273251  	91.090373 
1156.710158  	91.086543 
1158.147065  	91.076488 
1159.583972  	91.068015 
1161.020879  	91.068996 
1162.457786  	91.108203 
1163.894693  	91.100093 
1165.331600  	91.058982 
1166.768507  	91.068794 
1168.205414  	91.068079 
1169.642322  	91.066230 
1171.079229  	91.081402 
1172.516136  	91.055059 
1173.953043  	91.040348 
1175.389950  	91.057919 
1176.826857  	91.067311 
1178.263764  	91.080554 
1179.700671  	91.083656 
1181.137578  	91.075228 
1182.574485  	91.059216 
1184.011392  	91.044854 
1185.448299  	91.060065 
1186.885206  	91.063114 
1188.322113  	91.064817 
1189.759020  	91.084316 
1191.195927  	91.057325 
1192.632834  	91.042757 
1194.069741  	91.067887 
1195.506648  	91.055901 
1196.943555  	91.053059 
1198.380462  	91.061037 
1199.817369  	91.036741 
1201.254276  	91.015937 
1202.691183  	90.989135 
1204.128090  	90.988484 
1205.564997  	91.019902 
1207.001904  	91.002923 
1208.438811  	90.987356 
1209.875718  	91.008067 
1211.312625  	91.020735 
1212.749532  	91.030034 
1214.186439  	91.005462 
1215.623346  	90.978666 
1217.060253  	90.997255 
1218.497160  	91.000704 
1219.934068  	91.000818 
1221.370975  	91.006050 
1222.807882  	90.985408 
1224.244789  	90.983902 
1225.681696  	90.981965 
1227.118603  	90.973295 
1228.555510  	90.991660 
1229.992417  	90.978084 
1231.429324  	90.956366 
1232.866231  	90.971323 
1234.303138  	90.971101 
1235.740045  	90.964872 
1237.176952  	90.955790 
1238.613859  	90.938299 
1240.050766  	90.945179 
1241.487673  	90.943178 
1242.924580  	90.922909 
1244.361487  	90.906411 
1245.798394  	90.892027 
1247.235301  	90.892280 
1248.672208  	90.870369 
1250.109115  	90.836332 
1251.546022  	90.848836 
1252.982929  	90.860957 
1254.419836  	90.855731 
1255.856743  	90.848957 
1257.293650  	90.818859 
1258.730557  	90.802355 
1260.167464  	90.801340 
1261.604371  	90.801631 
1263.041278  	90.820362 
1264.478185  	90.815996 
1265.915092  	90.805239 
1267.351999  	90.806851 
1268.788907  	90.779179 
1270.225814  	90.766202 
1271.662721  	90.763638 
1273.099628  	90.744502 
1274.536535  	90.753490 
1275.973442  	90.739428 
1277.410349  	90.707279 
1278.847256  	90.721949 
1280.284163  	90.723126 
1281.721070  	90.723460 
1283.157977  	90.762584 
1284.594884  	90.790386 
1286.031791  	90.804499 
1287.468698  	90.791232 
1288.905605  	90.774756 
1290.342512  	90.806496 
1291.779419  	90.820488 
1293.216326  	90.816745 
1294.653233  	90.830376 
1296.090140  	90.825196 
1297.527047  	90.838711 
1298.963954  	90.875315 
1300.400861  	90.892609 
1301.837768  	90.908433 
1303.274675  	90.912985 
1304.711582  	90.921672 
1306.148489  	90.947164 
1307.585396  	90.947140 
1309.022303  	90.955880 
1310.459210  	90.956334 
1311.896117  	90.945589 
1313.333024  	90.940111 
1314.769931  	90.939293 
1316.206838  	90.948506 
1317.643745  	90.947546 
1319.080653  	90.931371 
1320.517560  	90.938468 
1321.954467  	90.968922 
1323.391374  	90.979057 
1324.828281  	90.978361 
1326.265188  	90.966775 
1327.702095  	90.940784 
1329.139002  	90.947331 
1330.575909  	90.972109 
1332.012816  	90.982275 
1333.449723  	90.961085 
1334.886630  	90.937612 
1336.323537  	90.910726 
1337.760444  	90.856139 
1339.197351  	90.787306 
1340.634258  	90.792243 
1342.071165  	90.816472 
1343.508072  	90.817648 
1344.944979  	90.799575 
1346.381886  	90.779587 
1347.818793  	90.779554 
1349.255700  	90.772410 
1350.692607  	90.749242 
1352.129514  	90.732332 
1353.566421  	90.698040 
1355.003328  	90.697835 
1356.440235  	90.702554 
1357.877142  	90.676452 
1359.314049  	90.647818 
1360.750956  	90.616435 
1362.187863  	90.542342 
1363.624770  	90.474497 
1365.061677  	90.467815 
1366.498584  	90.470685 
1367.935491  	90.416169 
1369.372399  	90.340812 
1370.809306  	90.317918 
1372.246213  	90.294714 
1373.683120  	90.199728 
1375.120027  	90.088193 
1376.556934  	90.029490 
1377.993841  	89.986597 
1379.430748  	89.968787 
1380.867655  	89.971329 
1382.304562  	89.969514 
1383.741469  	89.939480 
1385.178376  	89.912480 
1386.615283  	89.884692 
1388.052190  	89.831308 
1389.489097  	89.827081 
1390.926004  	89.833420 
1392.362911  	89.827748 
1393.799818  	89.806461 
1395.236725  	89.769648 
1396.673632  	89.793620 
1398.110539  	89.861085 
1399.547446  	89.894203 
1400.984353  	89.906719 
1402.421260  	89.953843 
1403.858167  	89.996519 
1405.295074  	90.021753 
1406.731981  	90.041605 
1408.168888  	90.059951 
1409.605795  	90.118650 
1411.042702  	90.180917 
1412.479609  	90.200403 
1413.916516  	90.263078 
1415.353423  	90.315857 
1416.790330  	90.333130 
1418.227238  	90.367802 
1419.664145  	90.380070 
1421.101052  	90.386402 
1422.537959  	90.368292 
1423.974866  	90.358562 
1425.411773  	90.383830 
1426.848680  	90.417389 
1428.285587  	90.490047 
1429.722494  	90.561048 
1431.159401  	90.559442 
1432.596308  	90.550211 
1434.033215  	90.571331 
1435.470122  	90.546959 
1436.907029  	90.428502 
1438.343936  	90.477486 
1439.780843  	90.578302 
1441.217750  	90.622751 
1442.654657  	90.635058 
1444.091564  	90.661147 
1445.528471  	90.621691 
1446.965378  	90.587363 
1448.402285  	90.671906 
1449.839192  	90.693010 
1451.276099  	90.710548 
1452.713006  	90.755031 
1454.149913  	90.696321 
1455.586820  	90.692505 
1457.023727  	90.678551 
1458.460634  	90.640088 
1459.897541  	90.535825 
1461.334448  	90.374797 
1462.771355  	90.327117 
1464.208262  	90.392805 
1465.645169  	90.434994 
1467.082076  	90.557034 
1468.518984  	90.667470 
1469.955891  	90.613917 
1471.392798  	90.470813 
1472.829705  	90.255995 
1474.266612  	90.276336 
1475.703519  	90.303210 
1477.140426  	90.224727 
1478.577333  	90.224703 
1480.014240  	90.249707 
1481.451147  	90.298488 
1482.888054  	90.475058 
1484.324961  	90.518202 
1485.761868  	90.438758 
1487.198775  	90.403627 
1488.635682  	90.329675 
1490.072589  	90.233557 
1491.509496  	90.253463 
1492.946403  	90.205669 
1494.383310  	90.137830 
1495.820217  	90.059642 
1497.257124  	89.994384 
1498.694031  	90.029402 
1500.130938  	90.064673 
1501.567845  	90.037732 
1503.004752  	89.972566 
1504.441659  	89.911026 
1505.878566  	89.927545 
1507.315473  	89.786388 
1508.752380  	89.527404 
1510.189287  	89.433055 
1511.626194  	89.399710 
1513.063101  	89.378156 
1514.500008  	89.348760 
1515.936915  	89.326124 
1517.373822  	89.365323 
1518.810730  	89.295220 
1520.247637  	89.168967 
1521.684544  	89.036373 
