##TITLE=No Description
##DATA TYPE=INFRARED SPECTRUM
##XUNITS=1/CM
##YUNITS=%T
399.460154  	30.506679 
400.897061  	30.592073 
402.333968  	31.372317 
403.770875  	30.718900 
405.207782  	30.529547 
406.644689  	30.742249 
408.081596  	30.380047 
409.518503  	31.452720 
410.955410  	31.383230 
412.392317  	30.103152 
413.829224  	30.633957 
415.266131  	30.786358 
416.703038  	30.263906 
418.139945  	31.274871 
419.576852  	31.557466 
421.013759  	31.334203 
422.450666  	31.226726 
423.887574  	30.432981 
425.324481  	30.826070 
426.761388  	31.352282 
428.198295  	31.279572 
429.635202  	31.495403 
431.072109  	31.467983 
432.509016  	31.563267 
433.945923  	31.797952 
435.382830  	31.426809 
436.819737  	31.400479 
438.256644  	31.564930 
439.693551  	31.310174 
441.130458  	31.144179 
442.567365  	30.970087 
444.004272  	30.789000 
445.441179  	30.559546 
446.878086  	30.634523 
448.314993  	31.403562 
449.751900  	31.773617 
451.188807  	32.037469 
452.625714  	32.557745 
454.062621  	32.245103 
455.499528  	31.840802 
456.936435  	31.581185 
458.373342  	31.357831 
459.810249  	31.513862 
461.247156  	31.100436 
462.684063  	30.806507 
464.120970  	31.479046 
465.557877  	31.730203 
466.994784  	31.574291 
468.431691  	31.632546 
469.868598  	31.586354 
471.305505  	31.659583 
472.742413  	31.755880 
474.179320  	31.820923 
475.616227  	32.023321 
477.053134  	32.037762 
478.490041  	31.874251 
479.926948  	31.718598 
481.363855  	31.539389 
482.800762  	31.513395 
484.237669  	31.552731 
485.674576  	31.842500 
487.111483  	32.200137 
488.548390  	32.236693 
489.985297  	32.276176 
491.422204  	32.199106 
492.859111  	31.956139 
494.296018  	31.977682 
495.732925  	31.953672 
497.169832  	31.968239 
498.606739  	31.957605 
500.043646  	31.658916 
501.480553  	31.740276 
502.917460  	32.148228 
504.354367  	32.094575 
505.791274  	32.018437 
507.228181  	32.023518 
508.665088  	32.101065 
510.101995  	32.312356 
511.538902  	32.310543 
512.975809  	32.289193 
514.412716  	32.380849 
515.849623  	32.505836 
517.286530  	32.888069 
518.723437  	32.978401 
520.160344  	32.687078 
521.597251  	32.721815 
523.034159  	32.774985 
524.471066  	32.741842 
525.907973  	32.970862 
527.344880  	33.181640 
528.781787  	33.226280 
530.218694  	33.212602 
531.655601  	33.151370 
533.092508  	33.218971 
534.529415  	33.418867 
535.966322  	33.581943 
537.403229  	33.579402 
538.840136  	33.467220 
540.277043  	33.445659 
541.713950  	33.540731 
543.150857  	33.753779 
544.587764  	33.935650 
546.024671  	33.871531 
547.461578  	33.887810 
548.898485  	34.068480 
550.335392  	34.114486 
551.772299  	34.155394 
553.209206  	34.319059 
554.646113  	34.462159 
556.083020  	34.508826 
557.519927  	34.570344 
558.956834  	34.764797 
560.393741  	34.841124 
561.830648  	34.784475 
563.267555  	34.920146 
564.704462  	35.028213 
566.141369  	34.997852 
567.578276  	35.105686 
569.015183  	35.289761 
570.452090  	35.465339 
571.888997  	35.554166 
573.325905  	35.499728 
574.762812  	35.544350 
576.199719  	35.692875 
577.636626  	35.788665 
579.073533  	35.843775 
580.510440  	35.845466 
581.947347  	35.979131 
583.384254  	36.223810 
584.821161  	36.308528 
586.258068  	36.386625 
587.694975  	36.556166 
589.131882  	36.686313 
590.568789  	36.830120 
592.005696  	36.928172 
593.442603  	36.984115 
594.879510  	37.161325 
596.316417  	37.341906 
597.753324  	37.410550 
599.190231  	37.459701 
600.627138  	37.590027 
602.064045  	37.802498 
603.500952  	37.959008 
604.937859  	38.051253 
606.374766  	38.146271 
607.811673  	38.215974 
609.248580  	38.269891 
610.685487  	38.352831 
612.122394  	38.503215 
613.559301  	38.683876 
614.996208  	38.818217 
616.433115  	38.950497 
617.870022  	39.128962 
619.306929  	39.270538 
620.743836  	39.427008 
622.180744  	39.614405 
623.617651  	39.720485 
625.054558  	39.801138 
626.491465  	39.929684 
627.928372  	40.077792 
629.365279  	40.229855 
630.802186  	40.354701 
632.239093  	40.494263 
633.676000  	40.642330 
635.112907  	40.735522 
636.549814  	40.858043 
637.986721  	41.047329 
639.423628  	41.218063 
640.860535  	41.379195 
642.297442  	41.536563 
643.734349  	41.646437 
645.171256  	41.792661 
646.608163  	41.971660 
648.045070  	42.148892 
649.481977  	42.321715 
650.918884  	42.493818 
652.355791  	42.653642 
653.792698  	42.794884 
655.229605  	42.936818 
656.666512  	43.118726 
658.103419  	43.249801 
659.540326  	43.400622 
660.977233  	43.582286 
662.414140  	43.781654 
663.851047  	44.018761 
665.287954  	44.145686 
666.724861  	44.243434 
668.161768  	44.485135 
669.598675  	44.743477 
671.035582  	44.846626 
672.472490  	44.997124 
673.909397  	45.193189 
675.346304  	45.368660 
676.783211  	45.526393 
678.220118  	45.722193 
679.657025  	45.929200 
681.093932  	46.128856 
682.530839  	46.310505 
683.967746  	46.479035 
685.404653  	46.654173 
686.841560  	46.858339 
688.278467  	47.078254 
689.715374  	47.271506 
691.152281  	47.428143 
692.589188  	47.586208 
694.026095  	47.760856 
695.463002  	47.975103 
696.899909  	48.194726 
698.336816  	48.382053 
699.773723  	48.577658 
701.210630  	48.786495 
702.647537  	48.966175 
704.084444  	49.160999 
705.521351  	49.388876 
706.958258  	49.599178 
708.395165  	49.798602 
709.832072  	49.987259 
711.268979  	50.184763 
712.705886  	50.411209 
714.142793  	50.611565 
715.579700  	50.804668 
717.016607  	51.043338 
718.453514  	51.253841 
719.890421  	51.427843 
721.327328  	51.635543 
722.764236  	51.873740 
724.201143  	52.117371 
725.638050  	52.370122 
727.074957  	52.599961 
728.511864  	52.806901 
729.948771  	52.993701 
731.385678  	53.182039 
732.822585  	53.407912 
734.259492  	53.645577 
735.696399  	53.868939 
737.133306  	54.074555 
738.570213  	54.273572 
740.007120  	54.531646 
741.444027  	54.788298 
742.880934  	54.915057 
744.317841  	55.079074 
745.754748  	55.418846 
747.191655  	55.733232 
748.628562  	55.956438 
750.065469  	56.169817 
751.502376  	56.336263 
752.939283  	56.533192 
754.376190  	56.799130 
755.813097  	57.029151 
757.250004  	57.279506 
758.686911  	57.535507 
760.123818  	57.709003 
761.560725  	57.937405 
762.997632  	58.220821 
764.434539  	58.418977 
765.871446  	58.605249 
767.308353  	58.836283 
768.745260  	59.077491 
770.182167  	59.337229 
771.619075  	59.592843 
773.055982  	59.842124 
774.492889  	60.099163 
775.929796  	60.340543 
777.366703  	60.573271 
778.803610  	60.826111 
780.240517  	61.106136 
781.677424  	61.358378 
783.114331  	61.561349 
784.551238  	61.798413 
785.988145  	62.061744 
787.425052  	62.282226 
788.861959  	62.489666 
790.298866  	62.740692 
791.735773  	63.059703 
793.172680  	63.359681 
794.609587  	63.561294 
796.046494  	63.759706 
797.483401  	63.975045 
798.920308  	64.183705 
800.357215  	64.450846 
801.794122  	64.716320 
803.231029  	64.959591 
804.667936  	65.250543 
806.104843  	65.503701 
807.541750  	65.705850 
808.978657  	65.952347 
810.415564  	66.218106 
811.852471  	66.462305 
813.289378  	66.691950 
814.726285  	66.950757 
816.163192  	67.270634 
817.600099  	67.591680 
819.037006  	67.867224 
820.473913  	68.087843 
821.910821  	68.291955 
823.347728  	68.543774 
824.784635  	68.794972 
826.221542  	69.023138 
827.658449  	69.281840 
829.095356  	69.544436 
830.532263  	69.788895 
831.969170  	70.023987 
833.406077  	70.238060 
834.842984  	70.432953 
836.279891  	70.642027 
837.716798  	70.913205 
839.153705  	71.187170 
840.590612  	71.431908 
842.027519  	71.730594 
843.464426  	72.002815 
844.901333  	72.228974 
846.338240  	72.530131 
847.775147  	72.789949 
849.212054  	72.994556 
850.648961  	73.281333 
852.085868  	73.540395 
853.522775  	73.736363 
854.959682  	73.972454 
856.396589  	74.244174 
857.833496  	74.514495 
859.270403  	74.730477 
860.707310  	74.937206 
862.144217  	75.184104 
863.581124  	75.404681 
865.018031  	75.647155 
866.454938  	75.904110 
867.891845  	76.112784 
869.328752  	76.360579 
870.765660  	76.587755 
872.202567  	76.760818 
873.639474  	77.015922 
875.076381  	77.292649 
876.513288  	77.514166 
877.950195  	77.712881 
879.387102  	77.916924 
880.824009  	78.161397 
882.260916  	78.376179 
883.697823  	78.583616 
885.134730  	78.844748 
886.571637  	79.028679 
888.008544  	79.177353 
889.445451  	79.381409 
890.882358  	79.573802 
892.319265  	79.791822 
893.756172  	79.999879 
895.193079  	80.167299 
896.629986  	80.367167 
898.066893  	80.525363 
899.503800  	80.677544 
900.940707  	80.882587 
902.377614  	81.048195 
903.814521  	81.232019 
905.251428  	81.422109 
906.688335  	81.571095 
908.125242  	81.774798 
909.562149  	81.952672 
910.999056  	82.089561 
912.435963  	82.268849 
913.872870  	82.412648 
915.309777  	82.582375 
916.746684  	82.798082 
918.183591  	82.949778 
919.620498  	83.114480 
921.057406  	83.292532 
922.494313  	83.424349 
923.931220  	83.555312 
925.368127  	83.679018 
926.805034  	83.818583 
928.241941  	83.959691 
929.678848  	84.077011 
931.115755  	84.224883 
932.552662  	84.349774 
933.989569  	84.468738 
935.426476  	84.630542 
936.863383  	84.743905 
938.300290  	84.855251 
939.737197  	84.990297 
941.174104  	85.106906 
942.611011  	85.251718 
944.047918  	85.334790 
945.484825  	85.385736 
946.921732  	85.526640 
948.358639  	85.639216 
949.795546  	85.735108 
951.232453  	85.849345 
952.669360  	85.908897 
954.106267  	86.025915 
955.543174  	86.169608 
956.980081  	86.243271 
958.416988  	86.332829 
959.853895  	86.419508 
961.290802  	86.517448 
962.727709  	86.633052 
964.164616  	86.696359 
965.601523  	86.791929 
967.038430  	86.872325 
968.475337  	86.889076 
969.912244  	86.968613 
971.349152  	87.042162 
972.786059  	87.105936 
974.222966  	87.222819 
975.659873  	87.288233 
977.096780  	87.353180 
978.533687  	87.420427 
979.970594  	87.433330 
981.407501  	87.509771 
982.844408  	87.590147 
984.281315  	87.643738 
985.718222  	87.752194 
987.155129  	87.793305 
988.592036  	87.802398 
990.028943  	87.886076 
991.465850  	87.961966 
992.902757  	88.024329 
994.339664  	88.056012 
995.776571  	88.066454 
997.213478  	88.117126 
998.650385  	88.142901 
1000.087292  	88.184882 
1001.524199  	88.261405 
1002.961106  	88.260074 
1004.398013  	88.251707 
1005.834920  	88.280296 
1007.271827  	88.305855 
1008.708734  	88.352453 
1010.145641  	88.374427 
1011.582548  	88.402075 
1013.019455  	88.476556 
1014.456362  	88.530211 
1015.893269  	88.580848 
1017.330176  	88.608796 
1018.767083  	88.620483 
1020.203991  	88.694502 
1021.640898  	88.734685 
1023.077805  	88.737919 
1024.514712  	88.799522 
1025.951619  	88.836307 
1027.388526  	88.835885 
1028.825433  	88.850823 
1030.262340  	88.859591 
1031.699247  	88.852990 
1033.136154  	88.816839 
1034.573061  	88.803021 
1036.009968  	88.834109 
1037.446875  	88.836875 
1038.883782  	88.840549 
1040.320689  	88.875851 
1041.757596  	88.927662 
1043.194503  	88.988921 
1044.631410  	89.007347 
1046.068317  	89.036626 
1047.505224  	89.111110 
1048.942131  	89.153289 
1050.379038  	89.187833 
1051.815945  	89.216125 
1053.252852  	89.247976 
1054.689759  	89.312222 
1056.126666  	89.308999 
1057.563573  	89.318733 
1059.000480  	89.413801 
1060.437387  	89.438043 
1061.874294  	89.458330 
1063.311201  	89.523181 
1064.748108  	89.507352 
1066.185015  	89.488621 
1067.621922  	89.514416 
1069.058829  	89.547359 
1070.495737  	89.593978 
1071.932644  	89.596655 
1073.369551  	89.586751 
1074.806458  	89.597795 
1076.243365  	89.594919 
1077.680272  	89.600557 
1079.117179  	89.584147 
1080.554086  	89.585780 
1081.990993  	89.635868 
1083.427900  	89.619766 
1084.864807  	89.603355 
1086.301714  	89.636053 
1087.738621  	89.630384 
1089.175528  	89.636556 
1090.612435  	89.632968 
1092.049342  	89.600141 
1093.486249  	89.612890 
1094.923156  	89.617332 
1096.360063  	89.639648 
1097.796970  	89.700626 
1099.233877  	89.709450 
1100.670784  	89.721227 
1102.107691  	89.729436 
1103.544598  	89.707704 
1104.981505  	89.741693 
1106.418412  	89.767800 
1107.855319  	89.763192 
1109.292226  	89.779941 
1110.729133  	89.777154 
1112.166040  	89.789898 
1113.602947  	89.811329 
1115.039854  	89.817213 
1116.476761  	89.859566 
1117.913668  	89.872994 
1119.350575  	89.864212 
1120.787483  	89.893750 
1122.224390  	89.907829 
1123.661297  	89.930559 
1125.098204  	89.937012 
1126.535111  	89.906400 
1127.972018  	89.939727 
1129.408925  	89.963049 
1130.845832  	89.938149 
1132.282739  	89.953739 
1133.719646  	89.955944 
1135.156553  	89.949677 
1136.593460  	89.962402 
1138.030367  	89.959176 
1139.467274  	89.988856 
1140.904181  	90.002054 
1142.341088  	89.960635 
1143.777995  	89.949576 
1145.214902  	89.948466 
1146.651809  	89.949573 
1148.088716  	89.966552 
1149.525623  	89.959137 
1150.962530  	89.957745 
1152.399437  	89.957384 
1153.836344  	89.945317 
1155.273251  	89.946063 
1156.710158  	89.930918 
1158.147065  	89.929868 
1159.583972  	89.939904 
1161.020879  	89.918087 
1162.457786  	89.918009 
1163.894693  	89.911366 
1165.331600  	89.888368 
1166.768507  	89.908001 
1168.205414  	89.903626 
1169.642322  	89.892991 
1171.079229  	89.918644 
1172.516136  	89.907974 
1173.953043  	89.900187 
1175.389950  	89.901991 
1176.826857  	89.875268 
1178.263764  	89.880709 
1179.700671  	89.880726 
1181.137578  	89.862193 
1182.574485  	89.878598 
1184.011392  	89.872983 
1185.448299  	89.852825 
1186.885206  	89.847887 
1188.322113  	89.830010 
1189.759020  	89.829986 
1191.195927  	89.834151 
1192.632834  	89.827207 
1194.069741  	89.831114 
1195.506648  	89.821496 
1196.943555  	89.819729 
1198.380462  	89.817393 
1199.817369  	89.789097 
1201.254276  	89.793045 
1202.691183  	89.807288 
1204.128090  	89.802775 
1205.564997  	89.800700 
1207.001904  	89.774593 
1208.438811  	89.767734 
1209.875718  	89.785941 
1211.312625  	89.776756 
1212.749532  	89.797589 
1214.186439  	89.819346 
1215.623346  	89.781326 
1217.060253  	89.755983 
1218.497160  	89.757087 
1219.934068  	89.768793 
1221.370975  	89.787701 
1222.807882  	89.781620 
1224.244789  	89.780524 
1225.681696  	89.779264 
1227.118603  	89.756750 
1228.555510  	89.754847 
1229.992417  	89.754854 
1231.429324  	89.755843 
1232.866231  	89.779387 
1234.303138  	89.770971 
1235.740045  	89.737689 
1237.176952  	89.729956 
1238.613859  	89.738682 
1240.050766  	89.739288 
1241.487673  	89.729288 
1242.924580  	89.733419 
1244.361487  	89.726241 
1245.798394  	89.686758 
1247.235301  	89.669521 
1248.672208  	89.667893 
1250.109115  	89.671211 
1251.546022  	89.693518 
1252.982929  	89.681015 
1254.419836  	89.652947 
1255.856743  	89.649169 
1257.293650  	89.634081 
1258.730557  	89.622842 
1260.167464  	89.622328 
1261.604371  	89.627287 
1263.041278  	89.641948 
1264.478185  	89.622824 
1265.915092  	89.607921 
1267.351999  	89.626185 
1268.788907  	89.616629 
1270.225814  	89.602468 
1271.662721  	89.596694 
1273.099628  	89.588653 
1274.536535  	89.598409 
1275.973442  	89.580641 
1277.410349  	89.554929 
1278.847256  	89.551556 
1280.284163  	89.527292 
1281.721070  	89.526684 
1283.157977  	89.542211 
1284.594884  	89.535841 
1286.031791  	89.561423 
1287.468698  	89.576913 
1288.905605  	89.574539 
1290.342512  	89.605187 
1291.779419  	89.613897 
1293.216326  	89.620968 
1294.653233  	89.631970 
1296.090140  	89.607024 
1297.527047  	89.614565 
1298.963954  	89.634984 
1300.400861  	89.644513 
1301.837768  	89.646427 
1303.274675  	89.669929 
1304.711582  	89.658089 
1306.148489  	89.678199 
1307.585396  	89.668896 
1309.022303  	89.683919 
1310.459210  	89.715792 
1311.896117  	89.696134 
1313.333024  	89.685099 
1314.769931  	89.687576 
1316.206838  	89.691162 
1317.643745  	89.696991 
1319.080653  	89.676228 
1320.517560  	89.682188 
1321.954467  	89.695263 
1323.391374  	89.688857 
1324.828281  	89.725818 
1326.265188  	89.738509 
1327.702095  	89.714333 
1329.139002  	89.703642 
1330.575909  	89.687791 
1332.012816  	89.666740 
1333.449723  	89.649971 
1334.886630  	89.627193 
1336.323537  	89.622682 
1337.760444  	89.609349 
1339.197351  	89.581266 
1340.634258  	89.595660 
1342.071165  	89.605678 
1343.508072  	89.605327 
1344.944979  	89.593472 
1346.381886  	89.572349 
1347.818793  	89.568154 
1349.255700  	89.549173 
1350.692607  	89.527408 
1352.129514  	89.521052 
1353.566421  	89.499694 
1355.003328  	89.462411 
1356.440235  	89.460635 
1357.877142  	89.459326 
1359.314049  	89.454922 
1360.750956  	89.432254 
1362.187863  	89.381595 
1363.624770  	89.348116 
1365.061677  	89.328374 
1366.498584  	89.312367 
1367.935491  	89.283426 
1369.372399  	89.222230 
1370.809306  	89.189179 
1372.246213  	89.178803 
1373.683120  	89.119487 
1375.120027  	89.073262 
1376.556934  	89.049783 
1377.993841  	89.019263 
1379.430748  	88.996996 
1380.867655  	88.960758 
1382.304562  	88.936448 
1383.741469  	88.921165 
1385.178376  	88.878192 
1386.615283  	88.836774 
1388.052190  	88.810198 
1389.489097  	88.812900 
1390.926004  	88.837362 
1392.362911  	88.840179 
1393.799818  	88.848201 
1395.236725  	88.848627 
1396.673632  	88.849933 
1398.110539  	88.887672 
1399.547446  	88.921930 
1400.984353  	88.942499 
1402.421260  	88.984613 
1403.858167  	88.989066 
1405.295074  	88.964416 
1406.731981  	89.005406 
1408.168888  	89.053716 
1409.605795  	89.071306 
1411.042702  	89.084501 
1412.479609  	89.108712 
1413.916516  	89.143660 
1415.353423  	89.143445 
1416.790330  	89.146587 
1418.227238  	89.201002 
1419.664145  	89.199493 
1421.101052  	89.214484 
1422.537959  	89.239015 
1423.974866  	89.224731 
1425.411773  	89.249864 
1426.848680  	89.302475 
1428.285587  	89.307962 
1429.722494  	89.295244 
1431.159401  	89.276450 
1432.596308  	89.277670 
1434.033215  	89.305072 
1435.470122  	89.329125 
1436.907029  	89.328986 
1438.343936  	89.308507 
1439.780843  	89.311081 
1441.217750  	89.333314 
1442.654657  	89.323984 
1444.091564  	89.339085 
1445.528471  	89.357544 
1446.965378  	89.321136 
1448.402285  	89.305407 
1449.839192  	89.321031 
1451.276099  	89.317833 
1452.713006  	89.305855 
1454.149913  	89.285717 
1455.586820  	89.250344 
1457.023727  	89.136869 
1458.460634  	89.128259 
1459.897541  	89.247764 
1461.334448  	89.290373 
1462.771355  	89.275854 
1464.208262  	89.246365 
1465.645169  	89.175068 
1467.082076  	89.151473 
1468.518984  	89.173133 
1469.955891  	89.190218 
1471.392798  	89.206739 
1472.829705  	89.105134 
1474.266612  	89.052867 
1475.703519  	89.101363 
1477.140426  	89.099894 
1478.577333  	89.097575 
1480.014240  	89.121255 
1481.451147  	89.076728 
1482.888054  	89.035345 
1484.324961  	89.034213 
1485.761868  	89.001113 
1487.198775  	88.975822 
1488.635682  	88.943830 
1490.072589  	88.885380 
1491.509496  	88.850144 
1492.946403  	88.806578 
1494.383310  	88.813823 
1495.820217  	88.841126 
1497.257124  	88.775468 
1498.694031  	88.729182 
1500.130938  	88.660254 
1501.567845  	88.598078 
1503.004752  	88.591924 
1504.441659  	88.591830 
1505.878566  	88.608600 
1507.315473  	88.455134 
1508.752380  	88.286932 
1510.189287  	88.333583 
1511.626194  	88.334917 
1513.063101  	88.292926 
1514.500008  	88.273274 
1515.936915  	88.201575 
1517.373822  	88.076516 
1518.810730  	88.069944 
1520.247637  	88.060979 
1521.684544  	88.025681 
