##TITLE=No Description
##DATA TYPE=INFRARED SPECTRUM
##XUNITS=1/CM
##YUNITS=%T
399.460154  	32.460978 
400.897061  	31.419498 
402.333968  	31.362012 
403.770875  	30.817565 
405.207782  	30.312102 
406.644689  	30.111790 
408.081596  	30.481034 
409.518503  	31.124870 
410.955410  	31.028255 
412.392317  	31.091264 
413.829224  	30.941710 
415.266131  	30.181486 
416.703038  	30.046508 
418.139945  	30.201745 
419.576852  	30.808458 
421.013759  	30.548324 
422.450666  	30.187713 
423.887574  	31.300463 
425.324481  	31.525472 
426.761388  	30.472259 
428.198295  	30.400818 
429.635202  	30.470283 
431.072109  	30.882333 
432.509016  	31.433587 
433.945923  	31.059816 
435.382830  	31.219344 
436.819737  	31.530830 
438.256644  	31.000729 
439.693551  	31.072819 
441.130458  	31.005559 
442.567365  	30.748529 
444.004272  	31.304977 
445.441179  	31.298171 
446.878086  	30.807155 
448.314993  	30.200945 
449.751900  	29.905700 
451.188807  	30.769609 
452.625714  	31.487829 
454.062621  	31.189011 
455.499528  	31.049856 
456.936435  	31.172923 
458.373342  	31.864338 
459.810249  	31.762485 
461.247156  	31.040188 
462.684063  	31.383372 
464.120970  	31.427676 
465.557877  	30.689340 
466.994784  	30.640437 
468.431691  	30.765375 
469.868598  	30.957998 
471.305505  	31.339994 
472.742413  	31.180632 
474.179320  	31.108270 
475.616227  	31.093620 
477.053134  	31.085607 
478.490041  	31.381488 
479.926948  	31.216450 
481.363855  	31.176263 
482.800762  	31.603214 
484.237669  	31.734120 
485.674576  	31.983621 
487.111483  	31.846271 
488.548390  	31.312422 
489.985297  	31.403566 
491.422204  	31.555336 
492.859111  	31.611071 
494.296018  	31.834157 
495.732925  	31.716588 
497.169832  	31.810856 
498.606739  	32.007542 
500.043646  	31.867964 
501.480553  	32.067620 
502.917460  	32.317279 
504.354367  	32.296692 
505.791274  	32.292178 
507.228181  	32.037936 
508.665088  	31.896862 
510.101995  	31.991039 
511.538902  	32.049456 
512.975809  	32.184151 
514.412716  	32.146953 
515.849623  	32.153342 
517.286530  	32.416701 
518.723437  	32.365990 
520.160344  	32.392996 
521.597251  	32.611638 
523.034159  	32.595168 
524.471066  	32.526374 
525.907973  	32.468116 
527.344880  	32.547976 
528.781787  	32.667677 
530.218694  	32.616982 
531.655601  	32.823272 
533.092508  	33.022466 
534.529415  	32.899924 
535.966322  	33.015363 
537.403229  	33.221696 
538.840136  	33.292410 
540.277043  	33.327066 
541.713950  	33.210344 
543.150857  	33.338958 
544.587764  	33.545519 
546.024671  	33.419334 
547.461578  	33.484598 
548.898485  	33.666079 
550.335392  	33.785300 
551.772299  	34.025898 
553.209206  	34.001959 
554.646113  	33.908692 
556.083020  	34.093093 
557.519927  	34.221639 
558.956834  	34.313838 
560.393741  	34.421704 
561.830648  	34.542245 
563.267555  	34.709414 
564.704462  	34.665333 
566.141369  	34.624907 
567.578276  	34.785054 
569.015183  	34.878698 
570.452090  	34.994118 
571.888997  	35.066697 
573.325905  	35.056655 
574.762812  	35.235780 
576.199719  	35.427267 
577.636626  	35.510261 
579.073533  	35.652390 
580.510440  	35.746071 
581.947347  	35.779926 
583.384254  	35.834468 
584.821161  	35.963110 
586.258068  	36.147818 
587.694975  	36.212010 
589.131882  	36.286836 
590.568789  	36.461650 
592.005696  	36.529842 
593.442603  	36.568324 
594.879510  	36.696625 
596.316417  	36.892060 
597.753324  	37.083697 
599.190231  	37.124256 
600.627138  	37.156434 
602.064045  	37.295410 
603.500952  	37.449312 
604.937859  	37.630820 
606.374766  	37.787995 
607.811673  	37.857074 
609.248580  	38.033519 
610.685487  	38.147119 
612.122394  	38.202065 
613.559301  	38.360925 
614.996208  	38.512295 
616.433115  	38.644840 
617.870022  	38.780828 
619.306929  	38.921552 
620.743836  	39.092692 
622.180744  	39.184608 
623.617651  	39.282258 
625.054558  	39.498211 
626.491465  	39.706710 
627.928372  	39.867301 
629.365279  	39.963773 
630.802186  	40.044345 
632.239093  	40.192454 
633.676000  	40.319641 
635.112907  	40.468389 
636.549814  	40.642118 
637.986721  	40.773452 
639.423628  	40.892938 
640.860535  	41.019953 
642.297442  	41.155457 
643.734349  	41.339395 
645.171256  	41.499884 
646.608163  	41.548201 
648.045070  	41.697868 
649.481977  	41.875884 
650.918884  	42.067630 
652.355791  	42.234861 
653.792698  	42.386200 
655.229605  	42.605951 
656.666512  	42.784431 
658.103419  	42.935081 
659.540326  	43.121059 
660.977233  	43.270024 
662.414140  	43.421813 
663.851047  	43.610855 
665.287954  	43.705128 
666.724861  	43.832343 
668.161768  	44.070543 
669.598675  	44.332176 
671.035582  	44.464881 
672.472490  	44.619732 
673.909397  	44.836513 
675.346304  	45.021514 
676.783211  	45.152203 
678.220118  	45.339035 
679.657025  	45.514798 
681.093932  	45.679231 
682.530839  	45.884813 
683.967746  	46.081654 
685.404653  	46.289307 
686.841560  	46.471492 
688.278467  	46.641199 
689.715374  	46.876067 
691.152281  	47.095526 
692.589188  	47.282022 
694.026095  	47.483044 
695.463002  	47.656301 
696.899909  	47.860406 
698.336816  	48.091673 
699.773723  	48.273395 
701.210630  	48.487201 
702.647537  	48.695720 
704.084444  	48.894486 
705.521351  	49.113341 
706.958258  	49.307032 
708.395165  	49.495701 
709.832072  	49.683988 
711.268979  	49.846883 
712.705886  	50.065902 
714.142793  	50.295277 
715.579700  	50.535698 
717.016607  	50.781090 
718.453514  	50.917516 
719.890421  	51.106299 
721.327328  	51.376313 
722.764236  	51.574563 
724.201143  	51.824158 
725.638050  	52.063877 
727.074957  	52.231291 
728.511864  	52.464192 
729.948771  	52.640576 
731.385678  	52.797329 
732.822585  	53.079652 
734.259492  	53.329481 
735.696399  	53.562587 
737.133306  	53.805446 
738.570213  	54.017739 
740.007120  	54.281508 
741.444027  	54.541587 
742.880934  	54.715774 
744.317841  	54.825300 
745.754748  	54.939173 
747.191655  	55.219348 
748.628562  	55.563535 
750.065469  	55.806261 
751.502376  	56.036028 
752.939283  	56.235611 
754.376190  	56.436566 
755.813097  	56.709840 
757.250004  	56.936004 
758.686911  	57.178263 
760.123818  	57.474691 
761.560725  	57.696884 
762.997632  	57.913917 
764.434539  	58.156211 
765.871446  	58.392579 
767.308353  	58.676336 
768.745260  	58.955043 
770.182167  	59.190450 
771.619075  	59.372071 
773.055982  	59.528356 
774.492889  	59.790275 
775.929796  	60.097165 
777.366703  	60.338184 
778.803610  	60.557751 
780.240517  	60.762703 
781.677424  	60.976747 
783.114331  	61.225166 
784.551238  	61.495459 
785.988145  	61.778339 
787.425052  	61.983342 
788.861959  	62.160651 
790.298866  	62.436337 
791.735773  	62.727438 
793.172680  	63.004996 
794.609587  	63.298794 
796.046494  	63.551538 
797.483401  	63.768075 
798.920308  	63.968923 
800.357215  	64.202139 
801.794122  	64.489331 
803.231029  	64.747183 
804.667936  	64.991902 
806.104843  	65.248696 
807.541750  	65.493760 
808.978657  	65.771182 
810.415564  	66.035530 
811.852471  	66.244152 
813.289378  	66.466157 
814.726285  	66.726678 
816.163192  	67.005977 
817.600099  	67.255536 
819.037006  	67.490580 
820.473913  	67.749119 
821.910821  	67.974625 
823.347728  	68.219867 
824.784635  	68.510665 
826.221542  	68.747917 
827.658449  	68.995112 
829.095356  	69.260579 
830.532263  	69.484290 
831.969170  	69.751820 
833.406077  	70.018997 
834.842984  	70.255204 
836.279891  	70.533121 
837.716798  	70.760758 
839.153705  	70.955053 
840.590612  	71.222753 
842.027519  	71.483672 
843.464426  	71.710086 
844.901333  	71.960169 
846.338240  	72.245038 
847.775147  	72.530375 
849.212054  	72.768673 
850.648961  	73.014042 
852.085868  	73.282391 
853.522775  	73.511637 
854.959682  	73.761609 
856.396589  	74.049640 
857.833496  	74.295891 
859.270403  	74.506668 
860.707310  	74.720602 
862.144217  	74.958401 
863.581124  	75.207561 
865.018031  	75.444574 
866.454938  	75.699531 
867.891845  	75.955407 
869.328752  	76.176629 
870.765660  	76.401188 
872.202567  	76.626674 
873.639474  	76.829763 
875.076381  	77.057333 
876.513288  	77.311538 
877.950195  	77.530253 
879.387102  	77.744739 
880.824009  	77.996469 
882.260916  	78.201847 
883.697823  	78.363732 
885.134730  	78.584251 
886.571637  	78.836644 
888.008544  	79.060635 
889.445451  	79.245214 
890.882358  	79.408275 
892.319265  	79.601465 
893.756172  	79.807404 
895.193079  	80.021823 
896.629986  	80.244203 
898.066893  	80.388306 
899.503800  	80.520540 
900.940707  	80.725589 
902.377614  	80.917705 
903.814521  	81.094067 
905.251428  	81.262238 
906.688335  	81.413770 
908.125242  	81.607550 
909.562149  	81.780463 
910.999056  	81.929643 
912.435963  	82.130793 
913.872870  	82.310159 
915.309777  	82.477907 
916.746684  	82.669213 
918.183591  	82.823898 
919.620498  	82.967981 
921.057406  	83.094914 
922.494313  	83.224477 
923.931220  	83.410128 
925.368127  	83.556617 
926.805034  	83.679366 
928.241941  	83.843363 
929.678848  	83.982561 
931.115755  	84.117436 
932.552662  	84.243612 
933.989569  	84.335738 
935.426476  	84.459400 
936.863383  	84.590828 
938.300290  	84.729980 
939.737197  	84.878701 
941.174104  	84.968054 
942.611011  	85.070811 
944.047918  	85.200325 
945.484825  	85.290074 
946.921732  	85.402214 
948.358639  	85.524896 
949.795546  	85.631925 
951.232453  	85.748903 
952.669360  	85.831895 
954.106267  	85.910534 
955.543174  	86.003765 
956.980081  	86.090345 
958.416988  	86.217269 
959.853895  	86.325031 
961.290802  	86.374208 
962.727709  	86.438623 
964.164616  	86.517025 
965.601523  	86.609729 
967.038430  	86.705951 
968.475337  	86.780964 
969.912244  	86.872182 
971.349152  	86.951164 
972.786059  	87.019688 
974.222966  	87.115484 
975.659873  	87.196050 
977.096780  	87.277668 
978.533687  	87.350599 
979.970594  	87.388925 
981.407501  	87.457848 
982.844408  	87.530095 
984.281315  	87.592587 
985.718222  	87.662627 
987.155129  	87.677906 
988.592036  	87.714069 
990.028943  	87.812212 
991.465850  	87.883313 
992.902757  	87.952137 
994.339664  	88.000501 
995.776571  	88.015112 
997.213478  	88.060439 
998.650385  	88.092082 
1000.087292  	88.124053 
1001.524199  	88.175390 
1002.961106  	88.185692 
1004.398013  	88.210522 
1005.834920  	88.239132 
1007.271827  	88.242271 
1008.708734  	88.295023 
1010.145641  	88.341883 
1011.582548  	88.367177 
1013.019455  	88.417373 
1014.456362  	88.446493 
1015.893269  	88.501152 
1017.330176  	88.573211 
1018.767083  	88.611523 
1020.203991  	88.682817 
1021.640898  	88.714671 
1023.077805  	88.683156 
1024.514712  	88.710472 
1025.951619  	88.738882 
1027.388526  	88.732771 
1028.825433  	88.746412 
1030.262340  	88.750347 
1031.699247  	88.750325 
1033.136154  	88.750857 
1034.573061  	88.751885 
1036.009968  	88.769305 
1037.446875  	88.765351 
1038.883782  	88.766246 
1040.320689  	88.788313 
1041.757596  	88.810331 
1043.194503  	88.878071 
1044.631410  	88.941345 
1046.068317  	88.969479 
1047.505224  	89.027751 
1048.942131  	89.064978 
1050.379038  	89.084752 
1051.815945  	89.148078 
1053.252852  	89.206970 
1054.689759  	89.246965 
1056.126666  	89.267724 
1057.563573  	89.281555 
1059.000480  	89.329796 
1060.437387  	89.374422 
1061.874294  	89.398657 
1063.311201  	89.406865 
1064.748108  	89.410212 
1066.185015  	89.444343 
1067.621922  	89.435335 
1069.058829  	89.396915 
1070.495737  	89.435469 
1071.932644  	89.480384 
1073.369551  	89.497638 
1074.806458  	89.517666 
1076.243365  	89.513710 
1077.680272  	89.521324 
1079.117179  	89.522299 
1080.554086  	89.509035 
1081.990993  	89.534117 
1083.427900  	89.539993 
1084.864807  	89.541703 
1086.301714  	89.567533 
1087.738621  	89.557166 
1089.175528  	89.568275 
1090.612435  	89.587046 
1092.049342  	89.554677 
1093.486249  	89.545985 
1094.923156  	89.547181 
1096.360063  	89.558056 
1097.796970  	89.605836 
1099.233877  	89.604246 
1100.670784  	89.592574 
1102.107691  	89.628585 
1103.544598  	89.658728 
1104.981505  	89.681019 
1106.418412  	89.677425 
1107.855319  	89.670894 
1109.292226  	89.701087 
1110.729133  	89.713020 
1112.166040  	89.724678 
1113.602947  	89.741309 
1115.039854  	89.732761 
1116.476761  	89.754211 
1117.913668  	89.774403 
1119.350575  	89.767478 
1120.787483  	89.777915 
1122.224390  	89.778075 
1123.661297  	89.794301 
1125.098204  	89.831757 
1126.535111  	89.826956 
1127.972018  	89.819568 
1129.408925  	89.834744 
1130.845832  	89.860256 
1132.282739  	89.871164 
1133.719646  	89.825597 
1135.156553  	89.805245 
1136.593460  	89.831553 
1138.030367  	89.833749 
1139.467274  	89.850420 
1140.904181  	89.857727 
1142.341088  	89.828603 
1143.777995  	89.826519 
1145.214902  	89.820711 
1146.651809  	89.796770 
1148.088716  	89.775496 
1149.525623  	89.758785 
1150.962530  	89.784539 
1152.399437  	89.793686 
1153.836344  	89.767218 
1155.273251  	89.781314 
1156.710158  	89.789207 
1158.147065  	89.788580 
1159.583972  	89.807275 
1161.020879  	89.793466 
1162.457786  	89.783962 
1163.894693  	89.781978 
1165.331600  	89.772373 
1166.768507  	89.792183 
1168.205414  	89.775842 
1169.642322  	89.754815 
1171.079229  	89.788327 
1172.516136  	89.776473 
1173.953043  	89.757498 
1175.389950  	89.778202 
1176.826857  	89.766473 
1178.263764  	89.770034 
1179.700671  	89.790664 
1181.137578  	89.782159 
1182.574485  	89.777328 
1184.011392  	89.766774 
1185.448299  	89.777055 
1186.885206  	89.803609 
1188.322113  	89.781251 
1189.759020  	89.767851 
1191.195927  	89.773465 
1192.632834  	89.755314 
1194.069741  	89.752336 
1195.506648  	89.750056 
1196.943555  	89.746765 
1198.380462  	89.758570 
1199.817369  	89.750279 
1201.254276  	89.752380 
1202.691183  	89.763225 
1204.128090  	89.749815 
1205.564997  	89.747469 
1207.001904  	89.744425 
1208.438811  	89.735738 
1209.875718  	89.729357 
1211.312625  	89.698508 
1212.749532  	89.695488 
1214.186439  	89.727144 
1215.623346  	89.730986 
1217.060253  	89.731482 
1218.497160  	89.737818 
1219.934068  	89.738656 
1221.370975  	89.742810 
1222.807882  	89.728068 
1224.244789  	89.706534 
1225.681696  	89.690945 
1227.118603  	89.673916 
1228.555510  	89.675459 
1229.992417  	89.685181 
1231.429324  	89.693405 
1232.866231  	89.697402 
1234.303138  	89.680010 
1235.740045  	89.665327 
1237.176952  	89.655415 
1238.613859  	89.643537 
1240.050766  	89.648634 
1241.487673  	89.646660 
1242.924580  	89.641437 
1244.361487  	89.645647 
1245.798394  	89.633095 
1247.235301  	89.623195 
1248.672208  	89.616924 
1250.109115  	89.602251 
1251.546022  	89.594304 
1252.982929  	89.575311 
1254.419836  	89.571988 
1255.856743  	89.596191 
1257.293650  	89.591221 
1258.730557  	89.576355 
1260.167464  	89.569799 
1261.604371  	89.560939 
1263.041278  	89.567538 
1264.478185  	89.565903 
1265.915092  	89.567738 
1267.351999  	89.581620 
1268.788907  	89.568288 
1270.225814  	89.563104 
1271.662721  	89.561538 
1273.099628  	89.545701 
1274.536535  	89.561369 
1275.973442  	89.561789 
1277.410349  	89.540534 
1278.847256  	89.539352 
1280.284163  	89.515113 
1281.721070  	89.504179 
1283.157977  	89.528440 
1284.594884  	89.539124 
1286.031791  	89.561303 
1287.468698  	89.569177 
1288.905605  	89.558865 
1290.342512  	89.582361 
1291.779419  	89.592247 
1293.216326  	89.596042 
1294.653233  	89.605758 
1296.090140  	89.585074 
1297.527047  	89.594635 
1298.963954  	89.618893 
1300.400861  	89.612483 
1301.837768  	89.619750 
1303.274675  	89.623399 
1304.711582  	89.629962 
1306.148489  	89.653852 
1307.585396  	89.646569 
1309.022303  	89.660574 
1310.459210  	89.668377 
1311.896117  	89.657497 
1313.333024  	89.655748 
1314.769931  	89.662890 
1316.206838  	89.664908 
1317.643745  	89.672527 
1319.080653  	89.658396 
1320.517560  	89.659359 
1321.954467  	89.669356 
1323.391374  	89.662152 
1324.828281  	89.670386 
1326.265188  	89.672131 
1327.702095  	89.657270 
1329.139002  	89.659188 
1330.575909  	89.641786 
1332.012816  	89.624554 
1333.449723  	89.635235 
1334.886630  	89.631483 
1336.323537  	89.622018 
1337.760444  	89.605732 
1339.197351  	89.584923 
1340.634258  	89.586387 
1342.071165  	89.590074 
1343.508072  	89.595210 
1344.944979  	89.594338 
1346.381886  	89.573842 
1347.818793  	89.568841 
1349.255700  	89.556744 
1350.692607  	89.522916 
1352.129514  	89.515841 
1353.566421  	89.498365 
1355.003328  	89.481198 
1356.440235  	89.486122 
1357.877142  	89.464683 
1359.314049  	89.435518 
1360.750956  	89.413162 
1362.187863  	89.371606 
1363.624770  	89.348326 
1365.061677  	89.360064 
1366.498584  	89.362077 
1367.935491  	89.329514 
1369.372399  	89.264770 
1370.809306  	89.218669 
1372.246213  	89.191380 
1373.683120  	89.147943 
1375.120027  	89.107604 
1376.556934  	89.079346 
1377.993841  	89.026673 
1379.430748  	88.989763 
1380.867655  	88.947720 
1382.304562  	88.914752 
1383.741469  	88.904319 
1385.178376  	88.905064 
1386.615283  	88.887458 
1388.052190  	88.839343 
1389.489097  	88.826717 
1390.926004  	88.842550 
1392.362911  	88.838837 
1393.799818  	88.847016 
1395.236725  	88.886467 
1396.673632  	88.914932 
1398.110539  	88.962932 
1399.547446  	88.971623 
1400.984353  	88.969520 
1402.421260  	89.043054 
1403.858167  	89.103119 
1405.295074  	89.107812 
1406.731981  	89.112794 
1408.168888  	89.106414 
1409.605795  	89.126202 
1411.042702  	89.131652 
1412.479609  	89.134743 
1413.916516  	89.172867 
1415.353423  	89.190767 
1416.790330  	89.198060 
1418.227238  	89.233480 
1419.664145  	89.186143 
1421.101052  	89.200046 
1422.537959  	89.271979 
1423.974866  	89.271524 
1425.411773  	89.283083 
1426.848680  	89.329354 
1428.285587  	89.328837 
1429.722494  	89.320333 
1431.159401  	89.313936 
1432.596308  	89.327213 
1434.033215  	89.367678 
1435.470122  	89.395554 
1436.907029  	89.372095 
1438.343936  	89.349568 
1439.780843  	89.371237 
1441.217750  	89.396758 
1442.654657  	89.392002 
1444.091564  	89.399354 
1445.528471  	89.424508 
1446.965378  	89.400171 
1448.402285  	89.359411 
1449.839192  	89.337843 
1451.276099  	89.349382 
1452.713006  	89.367540 
1454.149913  	89.371388 
1455.586820  	89.380096 
1457.023727  	89.357785 
1458.460634  	89.280326 
1459.897541  	89.298925 
1461.334448  	89.280871 
1462.771355  	89.259560 
1464.208262  	89.270548 
1465.645169  	89.253773 
1467.082076  	89.256563 
1468.518984  	89.260603 
1469.955891  	89.221713 
1471.392798  	89.173394 
1472.829705  	89.082950 
1474.266612  	89.077791 
1475.703519  	89.150727 
1477.140426  	89.110839 
1478.577333  	89.080611 
1480.014240  	89.098747 
1481.451147  	89.053005 
1482.888054  	89.052430 
1484.324961  	89.080976 
1485.761868  	89.049502 
1487.198775  	89.023951 
1488.635682  	88.979100 
1490.072589  	88.900587 
1491.509496  	88.897899 
1492.946403  	88.897938 
1494.383310  	88.889285 
1495.820217  	88.852278 
1497.257124  	88.747584 
1498.694031  	88.730758 
1500.130938  	88.733540 
1501.567845  	88.692121 
1503.004752  	88.658912 
1504.441659  	88.600671 
1505.878566  	88.578308 
1507.315473  	88.537965 
1508.752380  	88.357297 
1510.189287  	88.346323 
1511.626194  	88.325420 
1513.063101  	88.286285 
1514.500008  	88.267073 
1515.936915  	88.207621 
1517.373822  	88.141423 
1518.810730  	88.122994 
1520.247637  	88.062639 
1521.684544  	87.958090 
