##TITLE=No Description
##DATA TYPE=INFRARED SPECTRUM
##XUNITS=1/CM
##YUNITS=%T
399.460154  	31.085280 
400.897061  	29.447586 
402.333968  	29.516587 
403.770875  	30.543518 
405.207782  	30.650145 
406.644689  	29.541248 
408.081596  	30.310589 
409.518503  	32.050348 
410.955410  	31.827453 
412.392317  	30.832655 
413.829224  	30.512134 
415.266131  	30.759901 
416.703038  	30.859111 
418.139945  	30.381158 
419.576852  	31.021225 
421.013759  	30.678936 
422.450666  	29.578321 
423.887574  	29.701238 
425.324481  	30.143089 
426.761388  	30.338389 
428.198295  	30.709730 
429.635202  	30.526305 
431.072109  	30.635817 
432.509016  	31.094944 
433.945923  	30.943810 
435.382830  	31.371030 
436.819737  	31.704155 
438.256644  	31.313073 
439.693551  	31.668373 
441.130458  	31.395913 
442.567365  	30.291085 
444.004272  	30.420924 
445.441179  	30.921265 
446.878086  	31.348528 
448.314993  	31.393785 
449.751900  	30.913107 
451.188807  	31.109976 
452.625714  	31.350817 
454.062621  	31.138436 
455.499528  	31.536278 
456.936435  	32.170292 
458.373342  	32.052666 
459.810249  	31.483198 
461.247156  	31.250870 
462.684063  	31.423334 
464.120970  	31.283227 
465.557877  	31.304951 
466.994784  	31.996493 
468.431691  	32.126754 
469.868598  	31.818014 
471.305505  	31.577455 
472.742413  	31.211365 
474.179320  	31.444748 
475.616227  	31.793500 
477.053134  	31.607668 
478.490041  	31.189224 
479.926948  	31.077291 
481.363855  	31.456609 
482.800762  	31.608629 
484.237669  	31.410185 
485.674576  	31.653553 
487.111483  	31.583463 
488.548390  	31.192922 
489.985297  	31.249839 
491.422204  	31.469562 
492.859111  	32.004147 
494.296018  	32.402875 
495.732925  	32.112076 
497.169832  	32.102344 
498.606739  	32.182747 
500.043646  	31.906498 
501.480553  	31.805088 
502.917460  	31.668615 
504.354367  	31.699763 
505.791274  	32.047367 
507.228181  	32.161710 
508.665088  	32.335162 
510.101995  	32.457231 
511.538902  	32.249087 
512.975809  	32.366745 
514.412716  	32.473356 
515.849623  	32.210909 
517.286530  	32.221683 
518.723437  	32.488578 
520.160344  	32.657284 
521.597251  	32.726577 
523.034159  	32.798914 
524.471066  	32.896183 
525.907973  	32.813593 
527.344880  	32.837321 
528.781787  	33.049146 
530.218694  	33.019360 
531.655601  	32.944948 
533.092508  	32.960053 
534.529415  	33.013584 
535.966322  	33.256078 
537.403229  	33.336193 
538.840136  	33.231835 
540.277043  	33.251786 
541.713950  	33.307987 
543.150857  	33.544291 
544.587764  	33.750144 
546.024671  	33.641560 
547.461578  	33.739147 
548.898485  	33.966849 
550.335392  	34.001441 
551.772299  	34.104144 
553.209206  	34.197559 
554.646113  	34.246760 
556.083020  	34.438673 
557.519927  	34.647478 
558.956834  	34.755623 
560.393741  	34.773029 
561.830648  	34.805737 
563.267555  	34.854598 
564.704462  	34.833221 
566.141369  	34.875776 
567.578276  	34.909694 
569.015183  	34.892818 
570.452090  	35.055587 
571.888997  	35.195943 
573.325905  	35.257479 
574.762812  	35.406828 
576.199719  	35.463638 
577.636626  	35.516603 
579.073533  	35.689326 
580.510440  	35.797313 
581.947347  	35.885098 
583.384254  	35.966029 
584.821161  	36.050246 
586.258068  	36.247957 
587.694975  	36.443496 
589.131882  	36.575146 
590.568789  	36.638746 
592.005696  	36.660661 
593.442603  	36.789365 
594.879510  	36.914130 
596.316417  	37.009244 
597.753324  	37.152001 
599.190231  	37.231781 
600.627138  	37.373676 
602.064045  	37.598254 
603.500952  	37.719873 
604.937859  	37.843427 
606.374766  	37.925067 
607.811673  	37.975419 
609.248580  	38.185032 
610.685487  	38.373990 
612.122394  	38.481498 
613.559301  	38.629280 
614.996208  	38.737820 
616.433115  	38.849884 
617.870022  	38.967489 
619.306929  	39.073642 
620.743836  	39.260222 
622.180744  	39.387434 
623.617651  	39.488267 
625.054558  	39.720609 
626.491465  	39.883789 
627.928372  	39.922393 
629.365279  	39.981633 
630.802186  	40.089302 
632.239093  	40.260072 
633.676000  	40.443704 
635.112907  	40.611505 
636.549814  	40.765943 
637.986721  	40.903907 
639.423628  	41.032098 
640.860535  	41.168579 
642.297442  	41.317607 
643.734349  	41.493470 
645.171256  	41.646788 
646.608163  	41.757108 
648.045070  	41.939255 
649.481977  	42.106290 
650.918884  	42.290573 
652.355791  	42.498959 
653.792698  	42.655364 
655.229605  	42.809445 
656.666512  	42.922071 
658.103419  	43.049935 
659.540326  	43.281503 
660.977233  	43.454594 
662.414140  	43.604549 
663.851047  	43.817677 
665.287954  	43.907819 
666.724861  	44.009441 
668.161768  	44.257174 
669.598675  	44.521306 
671.035582  	44.637417 
672.472490  	44.783721 
673.909397  	44.998753 
675.346304  	45.202737 
676.783211  	45.360736 
678.220118  	45.536704 
679.657025  	45.730900 
681.093932  	45.934847 
682.530839  	46.112410 
683.967746  	46.248626 
685.404653  	46.410981 
686.841560  	46.622314 
688.278467  	46.840877 
689.715374  	47.013076 
691.152281  	47.154585 
692.589188  	47.354178 
694.026095  	47.585402 
695.463002  	47.743479 
696.899909  	47.932391 
698.336816  	48.202291 
699.773723  	48.433822 
701.210630  	48.598638 
702.647537  	48.756547 
704.084444  	48.975997 
705.521351  	49.232696 
706.958258  	49.462823 
708.395165  	49.686957 
709.832072  	49.871242 
711.268979  	50.034316 
712.705886  	50.235706 
714.142793  	50.431397 
715.579700  	50.629899 
717.016607  	50.860186 
718.453514  	51.081067 
719.890421  	51.308226 
721.327328  	51.555928 
722.764236  	51.793230 
724.201143  	52.017777 
725.638050  	52.148997 
727.074957  	52.286937 
728.511864  	52.570626 
729.948771  	52.859750 
731.385678  	53.062426 
732.822585  	53.256798 
734.259492  	53.467182 
735.696399  	53.671238 
737.133306  	53.858716 
738.570213  	54.077142 
740.007120  	54.313552 
741.444027  	54.522848 
742.880934  	54.759092 
744.317841  	54.989870 
745.754748  	55.224654 
747.191655  	55.533951 
748.628562  	55.770195 
750.065469  	55.919958 
751.502376  	56.130474 
752.939283  	56.358804 
754.376190  	56.587749 
755.813097  	56.816844 
757.250004  	57.035358 
758.686911  	57.321607 
760.123818  	57.603772 
761.560725  	57.834069 
762.997632  	58.071683 
764.434539  	58.287992 
765.871446  	58.549455 
767.308353  	58.839944 
768.745260  	59.041364 
770.182167  	59.256253 
771.619075  	59.495825 
773.055982  	59.698282 
774.492889  	59.941222 
775.929796  	60.180783 
777.366703  	60.406905 
778.803610  	60.670984 
780.240517  	60.898093 
781.677424  	61.094579 
783.114331  	61.297199 
784.551238  	61.539847 
785.988145  	61.867994 
787.425052  	62.148217 
788.861959  	62.347398 
790.298866  	62.600618 
791.735773  	62.897589 
793.172680  	63.177223 
794.609587  	63.411275 
796.046494  	63.620494 
797.483401  	63.853921 
798.920308  	64.087448 
800.357215  	64.362299 
801.794122  	64.672322 
803.231029  	64.914080 
804.667936  	65.152115 
806.104843  	65.401503 
807.541750  	65.581732 
808.978657  	65.781752 
810.415564  	66.061379 
811.852471  	66.365408 
813.289378  	66.644833 
814.726285  	66.881903 
816.163192  	67.105383 
817.600099  	67.311779 
819.037006  	67.544208 
820.473913  	67.849645 
821.910821  	68.121299 
823.347728  	68.344289 
824.784635  	68.586254 
826.221542  	68.829555 
827.658449  	69.112972 
829.095356  	69.409586 
830.532263  	69.632513 
831.969170  	69.856851 
833.406077  	70.125499 
834.842984  	70.360177 
836.279891  	70.563491 
837.716798  	70.832153 
839.153705  	71.154519 
840.590612  	71.398151 
842.027519  	71.607603 
843.464426  	71.891499 
844.901333  	72.166653 
846.338240  	72.398888 
847.775147  	72.640958 
849.212054  	72.899704 
850.648961  	73.175505 
852.085868  	73.410655 
853.522775  	73.610363 
854.959682  	73.851348 
856.396589  	74.102132 
857.833496  	74.355430 
859.270403  	74.622419 
860.707310  	74.860790 
862.144217  	75.092495 
863.581124  	75.325888 
865.018031  	75.559469 
866.454938  	75.813709 
867.891845  	76.045010 
869.328752  	76.249728 
870.765660  	76.464856 
872.202567  	76.696112 
873.639474  	76.928930 
875.076381  	77.126218 
876.513288  	77.340887 
877.950195  	77.607341 
879.387102  	77.842276 
880.824009  	78.065213 
882.260916  	78.299522 
883.697823  	78.500193 
885.134730  	78.703719 
886.571637  	78.918663 
888.008544  	79.137568 
889.445451  	79.353795 
890.882358  	79.525221 
892.319265  	79.711086 
893.756172  	79.923240 
895.193079  	80.099272 
896.629986  	80.289482 
898.066893  	80.506685 
899.503800  	80.719849 
900.940707  	80.917340 
902.377614  	81.072937 
903.814521  	81.245820 
905.251428  	81.446113 
906.688335  	81.620141 
908.125242  	81.796079 
909.562149  	81.963193 
910.999056  	82.135444 
912.435963  	82.339605 
913.872870  	82.507685 
915.309777  	82.668204 
916.746684  	82.853697 
918.183591  	83.025514 
919.620498  	83.195158 
921.057406  	83.332575 
922.494313  	83.473291 
923.931220  	83.649847 
925.368127  	83.753220 
926.805034  	83.845733 
928.241941  	84.015061 
929.678848  	84.168916 
931.115755  	84.296612 
932.552662  	84.407274 
933.989569  	84.512266 
935.426476  	84.654518 
936.863383  	84.774902 
938.300290  	84.879512 
939.737197  	85.004410 
941.174104  	85.115032 
942.611011  	85.232095 
944.047918  	85.341331 
945.484825  	85.456349 
946.921732  	85.606428 
948.358639  	85.710756 
949.795546  	85.808224 
951.232453  	85.924523 
952.669360  	85.985024 
954.106267  	86.065644 
955.543174  	86.173274 
956.980081  	86.262022 
958.416988  	86.373029 
959.853895  	86.455587 
961.290802  	86.547029 
962.727709  	86.676582 
964.164616  	86.742276 
965.601523  	86.815400 
967.038430  	86.903391 
968.475337  	86.939650 
969.912244  	87.028490 
971.349152  	87.134178 
972.786059  	87.209572 
974.222966  	87.302226 
975.659873  	87.336047 
977.096780  	87.378446 
978.533687  	87.504385 
979.970594  	87.588349 
981.407501  	87.631600 
982.844408  	87.684872 
984.281315  	87.748169 
985.718222  	87.828688 
987.155129  	87.881720 
988.592036  	87.931639 
990.028943  	87.987469 
991.465850  	88.021007 
992.902757  	88.083942 
994.339664  	88.135386 
995.776571  	88.169907 
997.213478  	88.246253 
998.650385  	88.293041 
1000.087292  	88.340798 
1001.524199  	88.414898 
1002.961106  	88.432454 
1004.398013  	88.465029 
1005.834920  	88.507562 
1007.271827  	88.511099 
1008.708734  	88.569123 
1010.145641  	88.629584 
1011.582548  	88.658746 
1013.019455  	88.722419 
1014.456362  	88.761307 
1015.893269  	88.794585 
1017.330176  	88.847901 
1018.767083  	88.866881 
1020.203991  	88.903390 
1021.640898  	88.944775 
1023.077805  	88.953330 
1024.514712  	88.991824 
1025.951619  	89.039317 
1027.388526  	89.064200 
1028.825433  	89.091685 
1030.262340  	89.129713 
1031.699247  	89.167694 
1033.136154  	89.162450 
1034.573061  	89.137242 
1036.009968  	89.138606 
1037.446875  	89.161079 
1038.883782  	89.227601 
1040.320689  	89.285127 
1041.757596  	89.287034 
1043.194503  	89.294052 
1044.631410  	89.294820 
1046.068317  	89.314835 
1047.505224  	89.371956 
1048.942131  	89.375623 
1050.379038  	89.390441 
1051.815945  	89.439389 
1053.252852  	89.427350 
1054.689759  	89.442616 
1056.126666  	89.500133 
1057.563573  	89.520420 
1059.000480  	89.562412 
1060.437387  	89.603878 
1061.874294  	89.594228 
1063.311201  	89.587365 
1064.748108  	89.601259 
1066.185015  	89.618971 
1067.621922  	89.618394 
1069.058829  	89.613693 
1070.495737  	89.625871 
1071.932644  	89.633114 
1073.369551  	89.662081 
1074.806458  	89.697607 
1076.243365  	89.693584 
1077.680272  	89.697985 
1079.117179  	89.713523 
1080.554086  	89.720194 
1081.990993  	89.724713 
1083.427900  	89.721885 
1084.864807  	89.753735 
1086.301714  	89.782248 
1087.738621  	89.773980 
1089.175528  	89.804634 
1090.612435  	89.824549 
1092.049342  	89.810189 
1093.486249  	89.819253 
1094.923156  	89.808990 
1096.360063  	89.809972 
1097.796970  	89.816895 
1099.233877  	89.774642 
1100.670784  	89.794083 
1102.107691  	89.861294 
1103.544598  	89.872687 
1104.981505  	89.866916 
1106.418412  	89.864864 
1107.855319  	89.901604 
1109.292226  	89.938005 
1110.729133  	89.897210 
1112.166040  	89.894745 
1113.602947  	89.926517 
1115.039854  	89.910503 
1116.476761  	89.923180 
1117.913668  	89.936060 
1119.350575  	89.936136 
1120.787483  	89.966636 
1122.224390  	89.957824 
1123.661297  	89.957567 
1125.098204  	89.996911 
1126.535111  	90.000096 
1127.972018  	90.005075 
1129.408925  	90.006656 
1130.845832  	89.992585 
1132.282739  	89.998642 
1133.719646  	89.982542 
1135.156553  	89.980357 
1136.593460  	90.009494 
1138.030367  	90.014869 
1139.467274  	90.032713 
1140.904181  	90.031322 
1142.341088  	90.006600 
1143.777995  	90.022672 
1145.214902  	90.007848 
1146.651809  	89.979282 
1148.088716  	89.990626 
1149.525623  	89.970909 
1150.962530  	89.956420 
1152.399437  	89.969830 
1153.836344  	89.962117 
1155.273251  	89.959498 
1156.710158  	89.952393 
1158.147065  	89.952200 
1159.583972  	89.971897 
1161.020879  	89.959044 
1162.457786  	89.949962 
1163.894693  	89.953810 
1165.331600  	89.939625 
1166.768507  	89.945949 
1168.205414  	89.940810 
1169.642322  	89.918922 
1171.079229  	89.927823 
1172.516136  	89.927658 
1173.953043  	89.915917 
1175.389950  	89.912075 
1176.826857  	89.913964 
1178.263764  	89.932713 
1179.700671  	89.924166 
1181.137578  	89.904214 
1182.574485  	89.913640 
1184.011392  	89.909818 
1185.448299  	89.915598 
1186.885206  	89.932955 
1188.322113  	89.916717 
1189.759020  	89.902913 
1191.195927  	89.889673 
1192.632834  	89.879141 
1194.069741  	89.892261 
1195.506648  	89.885560 
1196.943555  	89.881443 
1198.380462  	89.883276 
1199.817369  	89.857194 
1201.254276  	89.859508 
1202.691183  	89.868433 
1204.128090  	89.846830 
1205.564997  	89.843271 
1207.001904  	89.837249 
1208.438811  	89.824455 
1209.875718  	89.822603 
1211.312625  	89.815742 
1212.749532  	89.837319 
1214.186439  	89.861223 
1215.623346  	89.850750 
1217.060253  	89.843548 
1218.497160  	89.830452 
1219.934068  	89.824763 
1221.370975  	89.833715 
1222.807882  	89.818070 
1224.244789  	89.816879 
1225.681696  	89.825410 
1227.118603  	89.814126 
1228.555510  	89.828258 
1229.992417  	89.832832 
1231.429324  	89.806915 
1232.866231  	89.803324 
1234.303138  	89.807923 
1235.740045  	89.805585 
1237.176952  	89.794478 
1238.613859  	89.777513 
1240.050766  	89.780781 
1241.487673  	89.777038 
1242.924580  	89.758261 
1244.361487  	89.744992 
1245.798394  	89.725080 
1247.235301  	89.717251 
1248.672208  	89.720979 
1250.109115  	89.723647 
1251.546022  	89.734978 
1252.982929  	89.719983 
1254.419836  	89.691208 
1255.856743  	89.683884 
1257.293650  	89.671693 
1258.730557  	89.660564 
1260.167464  	89.657519 
1261.604371  	89.670092 
1263.041278  	89.703685 
1264.478185  	89.697826 
1265.915092  	89.673192 
1267.351999  	89.673708 
1268.788907  	89.654406 
1270.225814  	89.637297 
1271.662721  	89.636197 
1273.099628  	89.622042 
1274.536535  	89.617036 
1275.973442  	89.603155 
1277.410349  	89.589857 
1278.847256  	89.605294 
1280.284163  	89.610811 
1281.721070  	89.619389 
1283.157977  	89.626900 
1284.594884  	89.614685 
1286.031791  	89.623884 
1287.468698  	89.624102 
1288.905605  	89.622731 
1290.342512  	89.659361 
1291.779419  	89.667899 
1293.216326  	89.662304 
1294.653233  	89.669834 
1296.090140  	89.663851 
1297.527047  	89.684415 
1298.963954  	89.700995 
1300.400861  	89.694666 
1301.837768  	89.717096 
1303.274675  	89.728966 
1304.711582  	89.736863 
1306.148489  	89.740567 
1307.585396  	89.728805 
1309.022303  	89.731634 
1310.459210  	89.743587 
1311.896117  	89.737898 
1313.333024  	89.752217 
1314.769931  	89.756030 
1316.206838  	89.755782 
1317.643745  	89.757473 
1319.080653  	89.734550 
1320.517560  	89.741962 
1321.954467  	89.757916 
1323.391374  	89.754909 
1324.828281  	89.757801 
1326.265188  	89.761730 
1327.702095  	89.751132 
1329.139002  	89.755524 
1330.575909  	89.738202 
1332.012816  	89.736197 
1333.449723  	89.732900 
1334.886630  	89.710406 
1336.323537  	89.697103 
1337.760444  	89.666848 
1339.197351  	89.646389 
1340.634258  	89.654550 
1342.071165  	89.665458 
1343.508072  	89.654352 
1344.944979  	89.636512 
1346.381886  	89.609931 
1347.818793  	89.607753 
1349.255700  	89.594365 
1350.692607  	89.578753 
1352.129514  	89.566560 
1353.566421  	89.547300 
1355.003328  	89.532993 
1356.440235  	89.524093 
1357.877142  	89.498942 
1359.314049  	89.488364 
1360.750956  	89.457779 
1362.187863  	89.400047 
1363.624770  	89.388920 
1365.061677  	89.377160 
1366.498584  	89.352292 
1367.935491  	89.325082 
1369.372399  	89.289883 
1370.809306  	89.264082 
1372.246213  	89.225132 
1373.683120  	89.154435 
1375.120027  	89.115199 
1376.556934  	89.093540 
1377.993841  	89.067509 
1379.430748  	89.037545 
1380.867655  	88.995467 
1382.304562  	88.962921 
1383.741469  	88.952230 
1385.178376  	88.921743 
1386.615283  	88.897412 
1388.052190  	88.886785 
1389.489097  	88.882064 
1390.926004  	88.901252 
1392.362911  	88.903517 
1393.799818  	88.890875 
1395.236725  	88.909012 
1396.673632  	88.928570 
1398.110539  	88.963788 
1399.547446  	88.988568 
1400.984353  	89.009774 
1402.421260  	89.040025 
1403.858167  	89.058156 
1405.295074  	89.074363 
1406.731981  	89.108535 
1408.168888  	89.120136 
1409.605795  	89.144019 
1411.042702  	89.171352 
1412.479609  	89.178348 
1413.916516  	89.209636 
1415.353423  	89.214002 
1416.790330  	89.217475 
1418.227238  	89.256171 
1419.664145  	89.277254 
1421.101052  	89.313438 
1422.537959  	89.335006 
1423.974866  	89.335055 
1425.411773  	89.368334 
1426.848680  	89.396841 
1428.285587  	89.408192 
1429.722494  	89.437935 
1431.159401  	89.427528 
1432.596308  	89.415126 
1434.033215  	89.406258 
1435.470122  	89.390206 
1436.907029  	89.397171 
1438.343936  	89.420993 
1439.780843  	89.423184 
1441.217750  	89.424152 
1442.654657  	89.402359 
1444.091564  	89.386521 
1445.528471  	89.400017 
1446.965378  	89.388584 
1448.402285  	89.392649 
1449.839192  	89.388218 
1451.276099  	89.368325 
1452.713006  	89.367154 
1454.149913  	89.347451 
1455.586820  	89.337152 
1457.023727  	89.334701 
1458.460634  	89.294901 
1459.897541  	89.305098 
1461.334448  	89.312271 
1462.771355  	89.305789 
1464.208262  	89.315105 
1465.645169  	89.295727 
1467.082076  	89.275041 
1468.518984  	89.279071 
1469.955891  	89.258038 
1471.392798  	89.255769 
1472.829705  	89.235501 
1474.266612  	89.207147 
1475.703519  	89.201800 
1477.140426  	89.182615 
1478.577333  	89.166367 
1480.014240  	89.159783 
1481.451147  	89.137776 
1482.888054  	89.141694 
1484.324961  	89.127465 
1485.761868  	89.062122 
1487.198775  	89.033436 
1488.635682  	88.971586 
1490.072589  	88.905027 
1491.509496  	88.909621 
1492.946403  	88.882115 
1494.383310  	88.853287 
1495.820217  	88.807069 
1497.257124  	88.736816 
1498.694031  	88.739492 
1500.130938  	88.696524 
1501.567845  	88.636411 
1503.004752  	88.620684 
1504.441659  	88.570579 
1505.878566  	88.515231 
1507.315473  	88.433769 
1508.752380  	88.373179 
1510.189287  	88.370282 
1511.626194  	88.321671 
1513.063101  	88.275143 
1514.500008  	88.240915 
1515.936915  	88.162668 
1517.373822  	88.125228 
1518.810730  	88.116202 
1520.247637  	88.022605 
1521.684544  	87.951220 
