##TITLE=No Description
##DATA TYPE=INFRARED SPECTRUM
##XUNITS=1/CM
##YUNITS=%T
399.460154  	44.673601 
400.897061  	43.940517 
402.333968  	44.290177 
403.770875  	44.034821 
405.207782  	44.014684 
406.644689  	45.039084 
408.081596  	45.362565 
409.518503  	44.466714 
410.955410  	44.156651 
412.392317  	44.657637 
413.829224  	44.375855 
415.266131  	44.130328 
416.703038  	44.985103 
418.139945  	46.265210 
419.576852  	45.758498 
421.013759  	44.442253 
422.450666  	44.403851 
423.887574  	44.843892 
425.324481  	44.285741 
426.761388  	43.742751 
428.198295  	44.000906 
429.635202  	44.279420 
431.072109  	44.619412 
432.509016  	44.615265 
433.945923  	44.337502 
435.382830  	44.856863 
436.819737  	45.001625 
438.256644  	44.450694 
439.693551  	44.482593 
441.130458  	44.523710 
442.567365  	44.761543 
444.004272  	45.392373 
445.441179  	44.992365 
446.878086  	44.506283 
448.314993  	44.697935 
449.751900  	44.720330 
451.188807  	44.906394 
452.625714  	44.952188 
454.062621  	44.441852 
455.499528  	44.590990 
456.936435  	45.566250 
458.373342  	46.116108 
459.810249  	45.315247 
461.247156  	44.400512 
462.684063  	44.394014 
464.120970  	44.787195 
465.557877  	44.957246 
466.994784  	45.020755 
468.431691  	44.810220 
469.868598  	44.822511 
471.305505  	45.026820 
472.742413  	44.604014 
474.179320  	44.423704 
475.616227  	44.806282 
477.053134  	45.221801 
478.490041  	45.521491 
479.926948  	45.422516 
481.363855  	45.054642 
482.800762  	44.922298 
484.237669  	45.324842 
485.674576  	45.764825 
487.111483  	45.349334 
488.548390  	44.979990 
489.985297  	45.223564 
491.422204  	44.989889 
492.859111  	44.744562 
494.296018  	45.091667 
495.732925  	45.035148 
497.169832  	45.002849 
498.606739  	45.437017 
500.043646  	45.597957 
501.480553  	45.530049 
502.917460  	45.449982 
504.354367  	45.439482 
505.791274  	45.523630 
507.228181  	45.442640 
508.665088  	45.441896 
510.101995  	45.652002 
511.538902  	45.874235 
512.975809  	46.078717 
514.412716  	46.068670 
515.849623  	46.088871 
517.286530  	46.223184 
518.723437  	45.922643 
520.160344  	45.738999 
521.597251  	45.981196 
523.034159  	46.109873 
524.471066  	46.260328 
525.907973  	46.460988 
527.344880  	46.487979 
528.781787  	46.543284 
530.218694  	46.527129 
531.655601  	46.461875 
533.092508  	46.451577 
534.529415  	46.435038 
535.966322  	46.597764 
537.403229  	46.767220 
538.840136  	46.759479 
540.277043  	46.835373 
541.713950  	46.823931 
543.150857  	46.709179 
544.587764  	46.821724 
546.024671  	47.087172 
547.461578  	47.322979 
548.898485  	47.336073 
550.335392  	47.155561 
551.772299  	47.182571 
553.209206  	47.413634 
554.646113  	47.557338 
556.083020  	47.540687 
557.519927  	47.507766 
558.956834  	47.630396 
560.393741  	47.716103 
561.830648  	47.699472 
563.267555  	47.803848 
564.704462  	47.874103 
566.141369  	47.870573 
567.578276  	48.029750 
569.015183  	48.233239 
570.452090  	48.314510 
571.888997  	48.330237 
573.325905  	48.428148 
574.762812  	48.638667 
576.199719  	48.700135 
577.636626  	48.643181 
579.073533  	48.746541 
580.510440  	48.892410 
581.947347  	48.955929 
583.384254  	49.007821 
584.821161  	49.074087 
586.258068  	49.136802 
587.694975  	49.176488 
589.131882  	49.275131 
590.568789  	49.435736 
592.005696  	49.545638 
593.442603  	49.645132 
594.879510  	49.737702 
596.316417  	49.830976 
597.753324  	50.000784 
599.190231  	50.077657 
600.627138  	50.052082 
602.064045  	50.161993 
603.500952  	50.317696 
604.937859  	50.415784 
606.374766  	50.509346 
607.811673  	50.600436 
609.248580  	50.679444 
610.685487  	50.765411 
612.122394  	50.869950 
613.559301  	50.992036 
614.996208  	51.122512 
616.433115  	51.242949 
617.870022  	51.363973 
619.306929  	51.465127 
620.743836  	51.576000 
622.180744  	51.723833 
623.617651  	51.849357 
625.054558  	51.915564 
626.491465  	51.979900 
627.928372  	52.099746 
629.365279  	52.226094 
630.802186  	52.323390 
632.239093  	52.419401 
633.676000  	52.547237 
635.112907  	52.710647 
636.549814  	52.834537 
637.986721  	52.904592 
639.423628  	53.009499 
640.860535  	53.128809 
642.297442  	53.257010 
643.734349  	53.416709 
645.171256  	53.559366 
646.608163  	53.685159 
648.045070  	53.815747 
649.481977  	53.922702 
650.918884  	54.048649 
652.355791  	54.185650 
653.792698  	54.267843 
655.229605  	54.371072 
656.666512  	54.535262 
658.103419  	54.718073 
659.540326  	54.857353 
660.977233  	54.959005 
662.414140  	55.093834 
663.851047  	55.233213 
665.287954  	55.343141 
666.724861  	55.489284 
668.161768  	55.635075 
669.598675  	55.779345 
671.035582  	55.924184 
672.472490  	56.075300 
673.909397  	56.190167 
675.346304  	56.329865 
676.783211  	56.504006 
678.220118  	56.654015 
679.657025  	56.782040 
681.093932  	56.919871 
682.530839  	57.064853 
683.967746  	57.193934 
685.404653  	57.316444 
686.841560  	57.445686 
688.278467  	57.625851 
689.715374  	57.816992 
691.152281  	57.992161 
692.589188  	58.144930 
694.026095  	58.280658 
695.463002  	58.427776 
696.899909  	58.606214 
698.336816  	58.753484 
699.773723  	58.903840 
701.210630  	59.100566 
702.647537  	59.265614 
704.084444  	59.425859 
705.521351  	59.624126 
706.958258  	59.771598 
708.395165  	59.910021 
709.832072  	60.103513 
711.268979  	60.294602 
712.705886  	60.457634 
714.142793  	60.593979 
715.579700  	60.761447 
717.016607  	60.947135 
718.453514  	61.091902 
719.890421  	61.259687 
721.327328  	61.446168 
722.764236  	61.576647 
724.201143  	61.710053 
725.638050  	61.947810 
727.074957  	62.160037 
728.511864  	62.309062 
729.948771  	62.478963 
731.385678  	62.641003 
732.822585  	62.749450 
734.259492  	62.890071 
735.696399  	63.092114 
737.133306  	63.249733 
738.570213  	63.387396 
740.007120  	63.596394 
741.444027  	63.827000 
742.880934  	64.046484 
744.317841  	64.222974 
745.754748  	64.371022 
747.191655  	64.584532 
748.628562  	64.794143 
750.065469  	64.952966 
751.502376  	65.155280 
752.939283  	65.359300 
754.376190  	65.524964 
755.813097  	65.724138 
757.250004  	65.965364 
758.686911  	66.181770 
760.123818  	66.294815 
761.560725  	66.378940 
762.997632  	66.562003 
764.434539  	66.763731 
765.871446  	66.931071 
767.308353  	67.114091 
768.745260  	67.290093 
770.182167  	67.486731 
771.619075  	67.707080 
773.055982  	67.879964 
774.492889  	68.050218 
775.929796  	68.258953 
777.366703  	68.480984 
778.803610  	68.712171 
780.240517  	68.916781 
781.677424  	69.096856 
783.114331  	69.296524 
784.551238  	69.488218 
785.988145  	69.661313 
787.425052  	69.851362 
788.861959  	70.037536 
790.298866  	70.204603 
791.735773  	70.403396 
793.172680  	70.622214 
794.609587  	70.796833 
796.046494  	70.974878 
797.483401  	71.187795 
798.920308  	71.364368 
800.357215  	71.534724 
801.794122  	71.746369 
803.231029  	71.950176 
804.667936  	72.172230 
806.104843  	72.429120 
807.541750  	72.628882 
808.978657  	72.756008 
810.415564  	72.887809 
811.852471  	73.069381 
813.289378  	73.291073 
814.726285  	73.506589 
816.163192  	73.701822 
817.600099  	73.916845 
819.037006  	74.141605 
820.473913  	74.327681 
821.910821  	74.512242 
823.347728  	74.724868 
824.784635  	74.923857 
826.221542  	75.125202 
827.658449  	75.317217 
829.095356  	75.466695 
830.532263  	75.656596 
831.969170  	75.876329 
833.406077  	76.052096 
834.842984  	76.255501 
836.279891  	76.485949 
837.716798  	76.676567 
839.153705  	76.858207 
840.590612  	77.039756 
842.027519  	77.240107 
843.464426  	77.473102 
844.901333  	77.660658 
846.338240  	77.803132 
847.775147  	77.987576 
849.212054  	78.221229 
850.648961  	78.453111 
852.085868  	78.673948 
853.522775  	78.889395 
854.959682  	79.064785 
856.396589  	79.230385 
857.833496  	79.434593 
859.270403  	79.639156 
860.707310  	79.842676 
862.144217  	80.019985 
863.581124  	80.156990 
865.018031  	80.356162 
866.454938  	80.557479 
867.891845  	80.697055 
869.328752  	80.895760 
870.765660  	81.106744 
872.202567  	81.282664 
873.639474  	81.488725 
875.076381  	81.668008 
876.513288  	81.843312 
877.950195  	82.024107 
879.387102  	82.148367 
880.824009  	82.319063 
882.260916  	82.524807 
883.697823  	82.688235 
885.134730  	82.864254 
886.571637  	83.013631 
888.008544  	83.155696 
889.445451  	83.332679 
890.882358  	83.470662 
892.319265  	83.621083 
893.756172  	83.786054 
895.193079  	83.916327 
896.629986  	84.068128 
898.066893  	84.193880 
899.503800  	84.327255 
900.940707  	84.530075 
902.377614  	84.679096 
903.814521  	84.816299 
905.251428  	84.987352 
906.688335  	85.101218 
908.125242  	85.228082 
909.562149  	85.377745 
910.999056  	85.505072 
912.435963  	85.648508 
913.872870  	85.759268 
915.309777  	85.875021 
916.746684  	86.045231 
918.183591  	86.189442 
919.620498  	86.323137 
921.057406  	86.439580 
922.494313  	86.518080 
923.931220  	86.628463 
925.368127  	86.759200 
926.805034  	86.903402 
928.241941  	87.026816 
929.678848  	87.077905 
931.115755  	87.171237 
932.552662  	87.302148 
933.989569  	87.388772 
935.426476  	87.507614 
936.863383  	87.624124 
938.300290  	87.686732 
939.737197  	87.769540 
941.174104  	87.874449 
942.611011  	87.972790 
944.047918  	88.040744 
945.484825  	88.103495 
946.921732  	88.213856 
948.358639  	88.306117 
949.795546  	88.381263 
951.232453  	88.487255 
952.669360  	88.570064 
954.106267  	88.648946 
955.543174  	88.729416 
956.980081  	88.786894 
958.416988  	88.869251 
959.853895  	88.938960 
961.290802  	88.996926 
962.727709  	89.085066 
964.164616  	89.133252 
965.601523  	89.180949 
967.038430  	89.264077 
968.475337  	89.304786 
969.912244  	89.362493 
971.349152  	89.470000 
972.786059  	89.553217 
974.222966  	89.614353 
975.659873  	89.666939 
977.096780  	89.720909 
978.533687  	89.769306 
979.970594  	89.786790 
981.407501  	89.813320 
982.844408  	89.862912 
984.281315  	89.920383 
985.718222  	89.992592 
987.155129  	90.058455 
988.592036  	90.118125 
990.028943  	90.172682 
991.465850  	90.215074 
992.902757  	90.265994 
994.339664  	90.311198 
995.776571  	90.348394 
997.213478  	90.374760 
998.650385  	90.371548 
1000.087292  	90.397626 
1001.524199  	90.463587 
1002.961106  	90.524155 
1004.398013  	90.577258 
1005.834920  	90.591084 
1007.271827  	90.601918 
1008.708734  	90.657786 
1010.145641  	90.696565 
1011.582548  	90.738523 
1013.019455  	90.793214 
1014.456362  	90.785765 
1015.893269  	90.764304 
1017.330176  	90.793552 
1018.767083  	90.858738 
1020.203991  	90.915115 
1021.640898  	90.937245 
1023.077805  	90.987197 
1024.514712  	91.041007 
1025.951619  	91.043196 
1027.388526  	91.066947 
1028.825433  	91.090402 
1030.262340  	91.086523 
1031.699247  	91.110226 
1033.136154  	91.115042 
1034.573061  	91.119879 
1036.009968  	91.154995 
1037.446875  	91.157013 
1038.883782  	91.176800 
1040.320689  	91.215343 
1041.757596  	91.228737 
1043.194503  	91.279570 
1044.631410  	91.314264 
1046.068317  	91.303774 
1047.505224  	91.318864 
1048.942131  	91.318235 
1050.379038  	91.314894 
1051.815945  	91.349492 
1053.252852  	91.375143 
1054.689759  	91.400076 
1056.126666  	91.424511 
1057.563573  	91.442341 
1059.000480  	91.458167 
1060.437387  	91.448082 
1061.874294  	91.467733 
1063.311201  	91.500812 
1064.748108  	91.470989 
1066.185015  	91.461281 
1067.621922  	91.499414 
1069.058829  	91.525480 
1070.495737  	91.550477 
1071.932644  	91.563513 
1073.369551  	91.565324 
1074.806458  	91.571576 
1076.243365  	91.582802 
1077.680272  	91.608271 
1079.117179  	91.610975 
1080.554086  	91.604256 
1081.990993  	91.605107 
1083.427900  	91.572009 
1084.864807  	91.573932 
1086.301714  	91.620541 
1087.738621  	91.631308 
1089.175528  	91.642529 
1090.612435  	91.646712 
1092.049342  	91.635029 
1093.486249  	91.649556 
1094.923156  	91.636388 
1096.360063  	91.614488 
1097.796970  	91.627487 
1099.233877  	91.647308 
1100.670784  	91.694823 
1102.107691  	91.708676 
1103.544598  	91.670076 
1104.981505  	91.671392 
1106.418412  	91.659625 
1107.855319  	91.645684 
1109.292226  	91.700575 
1110.729133  	91.725765 
1112.166040  	91.720218 
1113.602947  	91.743958 
1115.039854  	91.756515 
1116.476761  	91.762939 
1117.913668  	91.760906 
1119.350575  	91.748448 
1120.787483  	91.753231 
1122.224390  	91.763721 
1123.661297  	91.785495 
1125.098204  	91.793136 
1126.535111  	91.781889 
1127.972018  	91.794462 
1129.408925  	91.776754 
1130.845832  	91.751100 
1132.282739  	91.781134 
1133.719646  	91.791852 
1135.156553  	91.798601 
1136.593460  	91.821255 
1138.030367  	91.800290 
1139.467274  	91.802026 
1140.904181  	91.821918 
1142.341088  	91.797530 
1143.777995  	91.793457 
1145.214902  	91.803732 
1146.651809  	91.796939 
1148.088716  	91.800519 
1149.525623  	91.801375 
1150.962530  	91.811529 
1152.399437  	91.823328 
1153.836344  	91.815392 
1155.273251  	91.817233 
1156.710158  	91.802973 
1158.147065  	91.778867 
1159.583972  	91.796037 
1161.020879  	91.809470 
1162.457786  	91.790592 
1163.894693  	91.772763 
1165.331600  	91.781150 
1166.768507  	91.804281 
1168.205414  	91.794151 
1169.642322  	91.782434 
1171.079229  	91.792540 
1172.516136  	91.761408 
1173.953043  	91.728778 
1175.389950  	91.740220 
1176.826857  	91.745202 
1178.263764  	91.748096 
1179.700671  	91.743468 
1181.137578  	91.713671 
1182.574485  	91.704782 
1184.011392  	91.715276 
1185.448299  	91.714599 
1186.885206  	91.706070 
1188.322113  	91.700476 
1189.759020  	91.709713 
1191.195927  	91.713711 
1192.632834  	91.705227 
1194.069741  	91.706088 
1195.506648  	91.705213 
1196.943555  	91.699673 
1198.380462  	91.691960 
1199.817369  	91.679463 
1201.254276  	91.682565 
1202.691183  	91.683624 
1204.128090  	91.668065 
1205.564997  	91.669336 
1207.001904  	91.678413 
1208.438811  	91.667965 
1209.875718  	91.657248 
1211.312625  	91.672296 
1212.749532  	91.683271 
1214.186439  	91.653089 
1215.623346  	91.641277 
1217.060253  	91.669659 
1218.497160  	91.661701 
1219.934068  	91.642977 
1221.370975  	91.662424 
1222.807882  	91.669794 
1224.244789  	91.664824 
1225.681696  	91.677113 
1227.118603  	91.681429 
1228.555510  	91.663858 
1229.992417  	91.645904 
1231.429324  	91.649551 
1232.866231  	91.657572 
1234.303138  	91.657071 
1235.740045  	91.666465 
1237.176952  	91.667143 
1238.613859  	91.650226 
1240.050766  	91.642628 
1241.487673  	91.647587 
1242.924580  	91.657430 
1244.361487  	91.649247 
1245.798394  	91.627625 
1247.235301  	91.627487 
1248.672208  	91.626018 
1250.109115  	91.621766 
1251.546022  	91.631363 
1252.982929  	91.620033 
1254.419836  	91.607737 
1255.856743  	91.609982 
1257.293650  	91.598441 
1258.730557  	91.599726 
1260.167464  	91.605493 
1261.604371  	91.594109 
1263.041278  	91.594847 
1264.478185  	91.596558 
1265.915092  	91.602978 
1267.351999  	91.607978 
1268.788907  	91.570375 
1270.225814  	91.544945 
1271.662721  	91.563985 
1273.099628  	91.577346 
1274.536535  	91.586520 
1275.973442  	91.587217 
1277.410349  	91.568023 
1278.847256  	91.554779 
1280.284163  	91.553854 
1281.721070  	91.558448 
1283.157977  	91.556983 
1284.594884  	91.558974 
1286.031791  	91.573864 
1287.468698  	91.572884 
1288.905605  	91.576926 
1290.342512  	91.592103 
1291.779419  	91.582076 
1293.216326  	91.587499 
1294.653233  	91.603587 
1296.090140  	91.588773 
1297.527047  	91.586620 
1298.963954  	91.602807 
1300.400861  	91.624489 
1301.837768  	91.615467 
1303.274675  	91.638667 
1304.711582  	91.631974 
1306.148489  	91.633989 
1307.585396  	91.636989 
1309.022303  	91.655291 
1310.459210  	91.660956 
1311.896117  	91.641483 
1313.333024  	91.637727 
1314.769931  	91.642989 
1316.206838  	91.644646 
1317.643745  	91.650142 
1319.080653  	91.647348 
1320.517560  	91.653773 
1321.954467  	91.662155 
1323.391374  	91.661068 
1324.828281  	91.664342 
1326.265188  	91.657338 
1327.702095  	91.653376 
1329.139002  	91.668000 
1330.575909  	91.654801 
1332.012816  	91.643340 
1333.449723  	91.638908 
1334.886630  	91.622661 
1336.323537  	91.614599 
1337.760444  	91.596676 
1339.197351  	91.571822 
1340.634258  	91.572605 
1342.071165  	91.592545 
1343.508072  	91.609757 
1344.944979  	91.604422 
1346.381886  	91.591307 
1347.818793  	91.587303 
1349.255700  	91.567384 
1350.692607  	91.553685 
1352.129514  	91.546859 
1353.566421  	91.528992 
1355.003328  	91.510789 
1356.440235  	91.516181 
1357.877142  	91.506767 
1359.314049  	91.502144 
1360.750956  	91.480303 
1362.187863  	91.422204 
1363.624770  	91.414298 
1365.061677  	91.427320 
1366.498584  	91.423736 
1367.935491  	91.407817 
1369.372399  	91.374135 
1370.809306  	91.365405 
1372.246213  	91.347502 
1373.683120  	91.289335 
1375.120027  	91.248820 
1376.556934  	91.237453 
1377.993841  	91.220243 
1379.430748  	91.205724 
1380.867655  	91.194550 
1382.304562  	91.186588 
1383.741469  	91.166520 
1385.178376  	91.139317 
1386.615283  	91.117595 
1388.052190  	91.102116 
1389.489097  	91.097648 
1390.926004  	91.108703 
1392.362911  	91.121910 
1393.799818  	91.124235 
1395.236725  	91.110211 
1396.673632  	91.114681 
1398.110539  	91.142261 
1399.547446  	91.147803 
1400.984353  	91.167614 
1402.421260  	91.200620 
1403.858167  	91.194119 
1405.295074  	91.194585 
1406.731981  	91.221910 
1408.168888  	91.235835 
1409.605795  	91.263905 
1411.042702  	91.271485 
1412.479609  	91.271496 
1413.916516  	91.296302 
1415.353423  	91.297902 
1416.790330  	91.288967 
1418.227238  	91.296127 
1419.664145  	91.296496 
1421.101052  	91.334122 
1422.537959  	91.364872 
1423.974866  	91.348103 
1425.411773  	91.355390 
1426.848680  	91.389090 
1428.285587  	91.399499 
1429.722494  	91.407775 
1431.159401  	91.400224 
1432.596308  	91.394175 
1434.033215  	91.412180 
1435.470122  	91.407682 
1436.907029  	91.392861 
1438.343936  	91.391137 
1439.780843  	91.408009 
1441.217750  	91.416876 
1442.654657  	91.405357 
1444.091564  	91.411457 
1445.528471  	91.428898 
1446.965378  	91.412645 
1448.402285  	91.382228 
1449.839192  	91.377196 
1451.276099  	91.386594 
1452.713006  	91.394510 
1454.149913  	91.379336 
1455.586820  	91.370376 
1457.023727  	91.320416 
1458.460634  	91.275377 
1459.897541  	91.318924 
1461.334448  	91.339734 
1462.771355  	91.352377 
1464.208262  	91.356397 
1465.645169  	91.313369 
1467.082076  	91.301193 
1468.518984  	91.300557 
1469.955891  	91.302179 
1471.392798  	91.301706 
1472.829705  	91.252532 
1474.266612  	91.223663 
1475.703519  	91.245797 
1477.140426  	91.217573 
1478.577333  	91.223027 
1480.014240  	91.224942 
1481.451147  	91.191555 
1482.888054  	91.180548 
1484.324961  	91.181866 
1485.761868  	91.144536 
1487.198775  	91.128335 
1488.635682  	91.083510 
1490.072589  	91.032739 
1491.509496  	91.011825 
1492.946403  	91.009655 
1494.383310  	91.014807 
1495.820217  	90.988866 
1497.257124  	90.925818 
1498.694031  	90.910281 
1500.130938  	90.852956 
1501.567845  	90.814987 
1503.004752  	90.822104 
1504.441659  	90.803722 
1505.878566  	90.778471 
1507.315473  	90.683813 
1508.752380  	90.578841 
1510.189287  	90.603799 
1511.626194  	90.588125 
1513.063101  	90.559412 
1514.500008  	90.546790 
1515.936915  	90.500115 
1517.373822  	90.451804 
1518.810730  	90.431258 
1520.247637  	90.365145 
1521.684544  	90.307411 
