##TITLE=No Description
##DATA TYPE=INFRARED SPECTRUM
##XUNITS=1/CM
##YUNITS=%T
399.460154  	96.431357 
400.897061  	95.811121 
402.333968  	93.563555 
403.770875  	93.566816 
405.207782  	93.716569 
406.644689  	94.954067 
408.081596  	95.100388 
409.518503  	94.448617 
410.955410  	95.134739 
412.392317  	94.422729 
413.829224  	94.527635 
415.266131  	95.704475 
416.703038  	94.324559 
418.139945  	93.610655 
419.576852  	94.604968 
421.013759  	93.314034 
422.450666  	93.554275 
423.887574  	93.835170 
425.324481  	93.833214 
426.761388  	94.708214 
428.198295  	94.748110 
429.635202  	94.651478 
431.072109  	94.833319 
432.509016  	94.799993 
433.945923  	95.169562 
435.382830  	94.962884 
436.819737  	94.487210 
438.256644  	94.519358 
439.693551  	94.590598 
441.130458  	95.286063 
442.567365  	95.009117 
444.004272  	94.026378 
445.441179  	94.666179 
446.878086  	94.808620 
448.314993  	94.735989 
449.751900  	95.289040 
451.188807  	94.912808 
452.625714  	94.719872 
454.062621  	94.696344 
455.499528  	94.319804 
456.936435  	94.943858 
458.373342  	94.693568 
459.810249  	94.030802 
461.247156  	94.621074 
462.684063  	94.440544 
464.120970  	94.356970 
465.557877  	95.033905 
466.994784  	94.790364 
468.431691  	94.346084 
469.868598  	94.251990 
471.305505  	94.519750 
472.742413  	95.307920 
474.179320  	95.159477 
475.616227  	95.072024 
477.053134  	95.332673 
478.490041  	94.946997 
479.926948  	94.872535 
481.363855  	94.845776 
482.800762  	94.444302 
484.237669  	94.408894 
485.674576  	94.251265 
487.111483  	94.310788 
488.548390  	94.692519 
489.985297  	94.512416 
491.422204  	94.483413 
492.859111  	94.838720 
494.296018  	94.951529 
495.732925  	95.127236 
497.169832  	95.251615 
498.606739  	95.214003 
500.043646  	95.105066 
501.480553  	94.790084 
502.917460  	94.688206 
504.354367  	94.805146 
505.791274  	95.051852 
507.228181  	95.418967 
508.665088  	95.383768 
510.101995  	95.347331 
511.538902  	95.347595 
512.975809  	95.018512 
514.412716  	94.948335 
515.849623  	94.984359 
517.286530  	94.883904 
518.723437  	94.969723 
520.160344  	94.896002 
521.597251  	95.041600 
523.034159  	95.395590 
524.471066  	95.192160 
525.907973  	95.003804 
527.344880  	95.107684 
528.781787  	94.874478 
530.218694  	94.690858 
531.655601  	94.803641 
533.092508  	95.082572 
534.529415  	95.252399 
535.966322  	94.978986 
537.403229  	94.783390 
538.840136  	94.877620 
540.277043  	94.876338 
541.713950  	94.991407 
543.150857  	95.225348 
544.587764  	95.312531 
546.024671  	95.268689 
547.461578  	95.179109 
548.898485  	95.190408 
550.335392  	95.211637 
551.772299  	95.193848 
553.209206  	95.206536 
554.646113  	95.102322 
556.083020  	95.061469 
557.519927  	95.114823 
558.956834  	95.059153 
560.393741  	95.123510 
561.830648  	95.170710 
563.267555  	95.083057 
564.704462  	95.129108 
566.141369  	95.067946 
567.578276  	94.982699 
569.015183  	95.105199 
570.452090  	95.077129 
571.888997  	95.054678 
573.325905  	95.147616 
574.762812  	95.066869 
576.199719  	95.052156 
577.636626  	95.205215 
579.073533  	95.284225 
580.510440  	95.247840 
581.947347  	95.112367 
583.384254  	95.079961 
584.821161  	95.112950 
586.258068  	95.050286 
587.694975  	95.048970 
589.131882  	95.065602 
590.568789  	95.058693 
592.005696  	95.156456 
593.442603  	95.249608 
594.879510  	95.266564 
596.316417  	95.181598 
597.753324  	95.104268 
599.190231  	95.177212 
600.627138  	95.142873 
602.064045  	95.120490 
603.500952  	95.280062 
604.937859  	95.177460 
606.374766  	95.057858 
607.811673  	95.095133 
609.248580  	95.145385 
610.685487  	95.187603 
612.122394  	95.185274 
613.559301  	95.182083 
614.996208  	95.187947 
616.433115  	95.069245 
617.870022  	95.010473 
619.306929  	95.154410 
620.743836  	95.200716 
622.180744  	95.169233 
623.617651  	95.146873 
625.054558  	95.110722 
626.491465  	95.178707 
627.928372  	95.230408 
629.365279  	95.222193 
630.802186  	95.243350 
632.239093  	95.231656 
633.676000  	95.247318 
635.112907  	95.250666 
636.549814  	95.225235 
637.986721  	95.291759 
639.423628  	95.339116 
640.860535  	95.326371 
642.297442  	95.349203 
643.734349  	95.355229 
645.171256  	95.360043 
646.608163  	95.411263 
648.045070  	95.431244 
649.481977  	95.466838 
650.918884  	95.524129 
652.355791  	95.545924 
653.792698  	95.537394 
655.229605  	95.506361 
656.666512  	95.504403 
658.103419  	95.468790 
659.540326  	95.381862 
660.977233  	95.410233 
662.414140  	95.492173 
663.851047  	95.478221 
665.287954  	95.462433 
666.724861  	95.476660 
668.161768  	95.507449 
669.598675  	95.521928 
671.035582  	95.543450 
672.472490  	95.575418 
673.909397  	95.536680 
675.346304  	95.498129 
676.783211  	95.534833 
678.220118  	95.576818 
679.657025  	95.602652 
681.093932  	95.628280 
682.530839  	95.613436 
683.967746  	95.639426 
685.404653  	95.668811 
686.841560  	95.674429 
688.278467  	95.683807 
689.715374  	95.697298 
691.152281  	95.694626 
692.589188  	95.689705 
694.026095  	95.673230 
695.463002  	95.678487 
696.899909  	95.698793 
698.336816  	95.682330 
699.773723  	95.656719 
701.210630  	95.648073 
702.647537  	95.656998 
704.084444  	95.713601 
705.521351  	95.753165 
706.958258  	95.784402 
708.395165  	95.809973 
709.832072  	95.800822 
711.268979  	95.837153 
712.705886  	95.878311 
714.142793  	95.897248 
715.579700  	95.931520 
717.016607  	95.932960 
718.453514  	95.924668 
719.890421  	95.979061 
721.327328  	96.025133 
722.764236  	96.048091 
724.201143  	96.023471 
725.638050  	95.998928 
727.074957  	96.057875 
728.511864  	96.069681 
729.948771  	96.018002 
731.385678  	95.999381 
732.822585  	95.993331 
734.259492  	96.004478 
735.696399  	96.012910 
737.133306  	95.976788 
738.570213  	95.968816 
740.007120  	95.997833 
741.444027  	96.020154 
742.880934  	96.058482 
744.317841  	96.104386 
745.754748  	96.136299 
747.191655  	96.143148 
748.628562  	96.104805 
750.065469  	96.051778 
751.502376  	96.054111 
752.939283  	96.125764 
754.376190  	96.182814 
755.813097  	96.176563 
757.250004  	96.171997 
758.686911  	96.208438 
760.123818  	96.256945 
761.560725  	96.275473 
762.997632  	96.267248 
764.434539  	96.276483 
765.871446  	96.283913 
767.308353  	96.294793 
768.745260  	96.333632 
770.182167  	96.311431 
771.619075  	96.255875 
773.055982  	96.291335 
774.492889  	96.359199 
775.929796  	96.386346 
777.366703  	96.403577 
778.803610  	96.435856 
780.240517  	96.464595 
781.677424  	96.431420 
783.114331  	96.403256 
784.551238  	96.472642 
785.988145  	96.518981 
787.425052  	96.481198 
788.861959  	96.479215 
790.298866  	96.531071 
791.735773  	96.550220 
793.172680  	96.522991 
794.609587  	96.504399 
796.046494  	96.500999 
797.483401  	96.512625 
798.920308  	96.569615 
800.357215  	96.591635 
801.794122  	96.542620 
803.231029  	96.534994 
804.667936  	96.569672 
806.104843  	96.595169 
807.541750  	96.629546 
808.978657  	96.656083 
810.415564  	96.661028 
811.852471  	96.655857 
813.289378  	96.665121 
814.726285  	96.694251 
816.163192  	96.710603 
817.600099  	96.749541 
819.037006  	96.790478 
820.473913  	96.761762 
821.910821  	96.743931 
823.347728  	96.778102 
824.784635  	96.835459 
826.221542  	96.898552 
827.658449  	96.900526 
829.095356  	96.916391 
830.532263  	96.966637 
831.969170  	96.910501 
833.406077  	96.880553 
834.842984  	96.955763 
836.279891  	96.961796 
837.716798  	96.933564 
839.153705  	96.942073 
840.590612  	96.968274 
842.027519  	96.995501 
843.464426  	96.940176 
844.901333  	96.891856 
846.338240  	96.936728 
847.775147  	96.963847 
849.212054  	96.993034 
850.648961  	97.023925 
852.085868  	97.010137 
853.522775  	97.019060 
854.959682  	97.013329 
856.396589  	97.027733 
857.833496  	97.121958 
859.270403  	97.163743 
860.707310  	97.183368 
862.144217  	97.220385 
863.581124  	97.180004 
865.018031  	97.158558 
866.454938  	97.192504 
867.891845  	97.206296 
869.328752  	97.214292 
870.765660  	97.198792 
872.202567  	97.210263 
873.639474  	97.252545 
875.076381  	97.224288 
876.513288  	97.203685 
877.950195  	97.222006 
879.387102  	97.209487 
880.824009  	97.210430 
882.260916  	97.215856 
883.697823  	97.215261 
885.134730  	97.239608 
886.571637  	97.267192 
888.008544  	97.310966 
889.445451  	97.343340 
890.882358  	97.349543 
892.319265  	97.364045 
893.756172  	97.343664 
895.193079  	97.334230 
896.629986  	97.363262 
898.066893  	97.353324 
899.503800  	97.370164 
900.940707  	97.410632 
902.377614  	97.404238 
903.814521  	97.424812 
905.251428  	97.453589 
906.688335  	97.455958 
908.125242  	97.458068 
909.562149  	97.434271 
910.999056  	97.436359 
912.435963  	97.449003 
913.872870  	97.423075 
915.309777  	97.423325 
916.746684  	97.402109 
918.183591  	97.379536 
919.620498  	97.437754 
921.057406  	97.472229 
922.494313  	97.498559 
923.931220  	97.524574 
925.368127  	97.456964 
926.805034  	97.444599 
928.241941  	97.516710 
929.678848  	97.539448 
931.115755  	97.556170 
932.552662  	97.555437 
933.989569  	97.553471 
935.426476  	97.594591 
936.863383  	97.569592 
938.300290  	97.537300 
939.737197  	97.570173 
941.174104  	97.569479 
942.611011  	97.561354 
944.047918  	97.561012 
945.484825  	97.556594 
946.921732  	97.594251 
948.358639  	97.603186 
949.795546  	97.568785 
951.232453  	97.541060 
952.669360  	97.515844 
954.106267  	97.555829 
955.543174  	97.618803 
956.980081  	97.601463 
958.416988  	97.569877 
959.853895  	97.582430 
961.290802  	97.625596 
962.727709  	97.652189 
964.164616  	97.643438 
965.601523  	97.663264 
967.038430  	97.673428 
968.475337  	97.668556 
969.912244  	97.723923 
971.349152  	97.738762 
972.786059  	97.709428 
974.222966  	97.739723 
975.659873  	97.750747 
977.096780  	97.739058 
978.533687  	97.750994 
979.970594  	97.750106 
981.407501  	97.769149 
982.844408  	97.769871 
984.281315  	97.735819 
985.718222  	97.769805 
987.155129  	97.822432 
988.592036  	97.830912 
990.028943  	97.825849 
991.465850  	97.804971 
992.902757  	97.820639 
994.339664  	97.857258 
995.776571  	97.836529 
997.213478  	97.834470 
998.650385  	97.887012 
1000.087292  	97.914347 
1001.524199  	97.897087 
1002.961106  	97.871335 
1004.398013  	97.884572 
1005.834920  	97.916468 
1007.271827  	97.916156 
1008.708734  	97.920672 
1010.145641  	97.942985 
1011.582548  	97.952218 
1013.019455  	97.957506 
1014.456362  	97.955908 
1015.893269  	97.943569 
1017.330176  	97.934531 
1018.767083  	97.935292 
1020.203991  	97.946626 
1021.640898  	97.958435 
1023.077805  	97.987391 
1024.514712  	98.034043 
1025.951619  	98.042410 
1027.388526  	98.020085 
1028.825433  	98.009934 
1030.262340  	98.003345 
1031.699247  	98.002442 
1033.136154  	98.004150 
1034.573061  	97.994887 
1036.009968  	98.002037 
1037.446875  	98.023742 
1038.883782  	98.019795 
1040.320689  	98.002671 
1041.757596  	98.011226 
1043.194503  	98.032907 
1044.631410  	98.034814 
1046.068317  	98.018326 
1047.505224  	97.997188 
1048.942131  	97.985504 
1050.379038  	97.982476 
1051.815945  	97.962906 
1053.252852  	97.942043 
1054.689759  	97.953328 
1056.126666  	97.982394 
1057.563573  	98.009819 
1059.000480  	98.025372 
1060.437387  	98.032631 
1061.874294  	98.052160 
1063.311201  	98.063152 
1064.748108  	98.050436 
1066.185015  	98.046608 
1067.621922  	98.062874 
1069.058829  	98.072398 
1070.495737  	98.050394 
1071.932644  	98.036403 
1073.369551  	98.070803 
1074.806458  	98.092564 
1076.243365  	98.069907 
1077.680272  	98.037612 
1079.117179  	98.013021 
1080.554086  	98.029093 
1081.990993  	98.049545 
1083.427900  	98.017901 
1084.864807  	98.002037 
1086.301714  	98.015553 
1087.738621  	98.009748 
1089.175528  	98.004756 
1090.612435  	97.992266 
1092.049342  	97.982616 
1093.486249  	97.997206 
1094.923156  	97.985386 
1096.360063  	97.978843 
1097.796970  	98.013431 
1099.233877  	98.009182 
1100.670784  	97.974957 
1102.107691  	97.976237 
1103.544598  	97.990261 
1104.981505  	98.001923 
1106.418412  	98.023137 
1107.855319  	98.033158 
1109.292226  	98.017878 
1110.729133  	98.007957 
1112.166040  	98.010548 
1113.602947  	97.995758 
1115.039854  	97.988778 
1116.476761  	97.993319 
1117.913668  	97.965917 
1119.350575  	97.952555 
1120.787483  	97.970186 
1122.224390  	97.964166 
1123.661297  	97.964649 
1125.098204  	97.980020 
1126.535111  	97.978894 
1127.972018  	97.992235 
1129.408925  	97.996077 
1130.845832  	97.958932 
1132.282739  	97.932346 
1133.719646  	97.931628 
1135.156553  	97.942428 
1136.593460  	97.962051 
1138.030367  	97.976360 
1139.467274  	97.982483 
1140.904181  	97.974133 
1142.341088  	97.966682 
1143.777995  	97.982952 
1145.214902  	97.989032 
1146.651809  	97.972932 
1148.088716  	97.956256 
1149.525623  	97.938803 
1150.962530  	97.936515 
1152.399437  	97.949557 
1153.836344  	97.954929 
1155.273251  	97.950091 
1156.710158  	97.931436 
1158.147065  	97.928908 
1159.583972  	97.959224 
1161.020879  	97.961280 
1162.457786  	97.932797 
1163.894693  	97.925763 
1165.331600  	97.928699 
1166.768507  	97.931409 
1168.205414  	97.938985 
1169.642322  	97.934956 
1171.079229  	97.926800 
1172.516136  	97.932392 
1173.953043  	97.945569 
1175.389950  	97.944601 
1176.826857  	97.928840 
1178.263764  	97.928518 
1179.700671  	97.935699 
1181.137578  	97.932667 
1182.574485  	97.943171 
1184.011392  	97.949078 
1185.448299  	97.930195 
1186.885206  	97.924407 
1188.322113  	97.927628 
1189.759020  	97.919010 
1191.195927  	97.914993 
1192.632834  	97.906986 
1194.069741  	97.895977 
1195.506648  	97.897137 
1196.943555  	97.891372 
1198.380462  	97.885811 
1199.817369  	97.900482 
1201.254276  	97.916375 
1202.691183  	97.923837 
1204.128090  	97.924298 
1205.564997  	97.914011 
1207.001904  	97.905731 
1208.438811  	97.909029 
1209.875718  	97.909818 
1211.312625  	97.893740 
1212.749532  	97.887155 
1214.186439  	97.916846 
1215.623346  	97.937659 
1217.060253  	97.921414 
1218.497160  	97.912181 
1219.934068  	97.925030 
1221.370975  	97.933704 
1222.807882  	97.924006 
1224.244789  	97.906533 
1225.681696  	97.904883 
1227.118603  	97.907578 
1228.555510  	97.906007 
1229.992417  	97.917970 
1231.429324  	97.923175 
1232.866231  	97.919700 
1234.303138  	97.925159 
1235.740045  	97.918531 
1237.176952  	97.916080 
1238.613859  	97.915214 
1240.050766  	97.883723 
1241.487673  	97.885695 
1242.924580  	97.921273 
1244.361487  	97.911346 
1245.798394  	97.905161 
1247.235301  	97.923065 
1248.672208  	97.905958 
1250.109115  	97.892767 
1251.546022  	97.902935 
1252.982929  	97.895260 
1254.419836  	97.882691 
1255.856743  	97.879600 
1257.293650  	97.880978 
1258.730557  	97.878169 
1260.167464  	97.864626 
1261.604371  	97.869082 
1263.041278  	97.890285 
1264.478185  	97.891706 
1265.915092  	97.878715 
1267.351999  	97.875703 
1268.788907  	97.882500 
1270.225814  	97.875378 
1271.662721  	97.862475 
1273.099628  	97.876470 
1274.536535  	97.880131 
1275.973442  	97.854371 
1277.410349  	97.850706 
1278.847256  	97.861568 
1280.284163  	97.860774 
1281.721070  	97.861559 
1283.157977  	97.857422 
1284.594884  	97.860062 
1286.031791  	97.874948 
1287.468698  	97.871025 
1288.905605  	97.863254 
1290.342512  	97.870454 
1291.779419  	97.873515 
1293.216326  	97.872211 
1294.653233  	97.868397 
1296.090140  	97.861679 
1297.527047  	97.858010 
1298.963954  	97.856058 
1300.400861  	97.861836 
1301.837768  	97.869151 
1303.274675  	97.868107 
1304.711582  	97.873756 
1306.148489  	97.876193 
1307.585396  	97.864956 
1309.022303  	97.865022 
1310.459210  	97.863916 
1311.896117  	97.868520 
1313.333024  	97.871156 
1314.769931  	97.871061 
1316.206838  	97.872175 
1317.643745  	97.874391 
1319.080653  	97.873326 
1320.517560  	97.871100 
1321.954467  	97.869859 
1323.391374  	97.880498 
1324.828281  	97.889022 
1326.265188  	97.882568 
1327.702095  	97.881286 
1329.139002  	97.875092 
1330.575909  	97.862891 
1332.012816  	97.855975 
1333.449723  	97.846938 
1334.886630  	97.843619 
1336.323537  	97.847989 
1337.760444  	97.847345 
1339.197351  	97.841801 
1340.634258  	97.840832 
1342.071165  	97.835062 
1343.508072  	97.845120 
1344.944979  	97.847281 
1346.381886  	97.842874 
1347.818793  	97.849713 
1349.255700  	97.853988 
1350.692607  	97.845604 
1352.129514  	97.841847 
1353.566421  	97.834390 
1355.003328  	97.836383 
1356.440235  	97.818998 
1357.877142  	97.821143 
1359.314049  	97.836602 
1360.750956  	97.847320 
1362.187863  	97.844629 
1363.624770  	97.807020 
1365.061677  	97.788595 
1366.498584  	97.805328 
1367.935491  	97.800661 
1369.372399  	97.779804 
1370.809306  	97.800616 
1372.246213  	97.827126 
1373.683120  	97.813632 
1375.120027  	97.779583 
1376.556934  	97.772296 
1377.993841  	97.767728 
1379.430748  	97.761049 
1380.867655  	97.769328 
1382.304562  	97.771070 
1383.741469  	97.764906 
1385.178376  	97.778286 
1386.615283  	97.773794 
1388.052190  	97.746363 
1389.489097  	97.748576 
1390.926004  	97.758848 
1392.362911  	97.764271 
1393.799818  	97.770406 
1395.236725  	97.735961 
1396.673632  	97.732301 
1398.110539  	97.764380 
1399.547446  	97.757818 
1400.984353  	97.754264 
1402.421260  	97.769960 
1403.858167  	97.797333 
1405.295074  	97.774280 
1406.731981  	97.732230 
1408.168888  	97.748501 
1409.605795  	97.795955 
1411.042702  	97.806968 
1412.479609  	97.797438 
1413.916516  	97.788940 
1415.353423  	97.790966 
1416.790330  	97.847339 
1418.227238  	97.893828 
1419.664145  	97.814367 
1421.101052  	97.798732 
1422.537959  	97.835328 
1423.974866  	97.801033 
1425.411773  	97.741162 
1426.848680  	97.780292 
1428.285587  	97.817416 
1429.722494  	97.818670 
1431.159401  	97.797579 
1432.596308  	97.790967 
1434.033215  	97.824633 
1435.470122  	97.869266 
1436.907029  	97.844186 
1438.343936  	97.791465 
1439.780843  	97.807437 
1441.217750  	97.838391 
1442.654657  	97.840823 
1444.091564  	97.840747 
1445.528471  	97.857388 
1446.965378  	97.859191 
1448.402285  	97.819061 
1449.839192  	97.809433 
1451.276099  	97.839875 
1452.713006  	97.858692 
1454.149913  	97.867703 
1455.586820  	97.902136 
1457.023727  	97.877953 
1458.460634  	97.793305 
1459.897541  	97.773269 
1461.334448  	97.798235 
1462.771355  	97.841836 
1464.208262  	97.835647 
1465.645169  	97.789761 
1467.082076  	97.773752 
1468.518984  	97.776347 
1469.955891  	97.819465 
1471.392798  	97.846370 
1472.829705  	97.742466 
1474.266612  	97.725959 
1475.703519  	97.759149 
1477.140426  	97.733483 
1478.577333  	97.728540 
1480.014240  	97.753685 
1481.451147  	97.760859 
1482.888054  	97.759753 
1484.324961  	97.766081 
1485.761868  	97.771980 
1487.198775  	97.775881 
1488.635682  	97.778172 
1490.072589  	97.756320 
1491.509496  	97.716383 
1492.946403  	97.720308 
1494.383310  	97.768885 
1495.820217  	97.791723 
1497.257124  	97.768915 
1498.694031  	97.748962 
1500.130938  	97.721304 
1501.567845  	97.707783 
1503.004752  	97.726504 
1504.441659  	97.778491 
1505.878566  	97.853998 
1507.315473  	97.671336 
1508.752380  	97.573009 
1510.189287  	97.631982 
1511.626194  	97.645625 
1513.063101  	97.652816 
1514.500008  	97.691596 
1515.936915  	97.663870 
1517.373822  	97.587467 
1518.810730  	97.646014 
1520.247637  	97.720838 
1521.684544  	97.657634 
