##TITLE=No Description
##DATA TYPE=INFRARED SPECTRUM
##XUNITS=1/CM
##YUNITS=%T
399.460154  	87.942957 
400.897061  	88.921817 
402.333968  	89.403948 
403.770875  	90.323357 
405.207782  	90.626692 
406.644689  	90.959121 
408.081596  	91.085850 
409.518503  	88.936598 
410.955410  	88.234114 
412.392317  	89.623743 
413.829224  	89.556377 
415.266131  	89.645154 
416.703038  	90.510380 
418.139945  	91.141463 
419.576852  	90.608960 
421.013759  	89.457584 
422.450666  	89.503114 
423.887574  	89.807999 
425.324481  	89.237649 
426.761388  	89.116402 
428.198295  	88.945381 
429.635202  	88.618644 
431.072109  	88.913391 
432.509016  	89.053576 
433.945923  	89.185216 
435.382830  	89.470206 
436.819737  	89.361920 
438.256644  	89.014265 
439.693551  	88.208115 
441.130458  	88.249543 
442.567365  	89.761425 
444.004272  	89.698365 
445.441179  	88.999915 
446.878086  	89.333175 
448.314993  	89.651542 
449.751900  	90.116769 
451.188807  	90.398979 
452.625714  	89.700287 
454.062621  	89.044985 
455.499528  	88.871027 
456.936435  	89.075161 
458.373342  	89.085111 
459.810249  	88.701885 
461.247156  	89.063510 
462.684063  	89.593386 
464.120970  	89.760027 
465.557877  	89.673561 
466.994784  	88.854291 
468.431691  	88.844178 
469.868598  	89.598467 
471.305505  	89.242390 
472.742413  	89.006592 
474.179320  	89.262205 
475.616227  	88.764050 
477.053134  	88.482824 
478.490041  	88.545893 
479.926948  	88.780813 
481.363855  	89.190974 
482.800762  	89.116851 
484.237669  	89.171473 
485.674576  	89.308635 
487.111483  	88.866361 
488.548390  	88.855959 
489.985297  	89.123262 
491.422204  	89.088258 
492.859111  	89.111367 
494.296018  	88.862765 
495.732925  	88.680914 
497.169832  	88.890089 
498.606739  	88.878187 
500.043646  	88.885790 
501.480553  	89.093338 
502.917460  	89.290607 
504.354367  	89.517545 
505.791274  	89.382027 
507.228181  	88.999340 
508.665088  	88.900057 
510.101995  	89.005504 
511.538902  	89.271322 
512.975809  	89.215345 
514.412716  	88.797208 
515.849623  	88.781550 
517.286530  	88.937732 
518.723437  	88.979138 
520.160344  	89.092657 
521.597251  	88.970925 
523.034159  	88.888699 
524.471066  	88.985120 
525.907973  	88.901605 
527.344880  	88.908773 
528.781787  	89.069944 
530.218694  	89.159486 
531.655601  	89.148054 
533.092508  	88.951064 
534.529415  	88.853747 
535.966322  	88.928524 
537.403229  	88.889566 
538.840136  	88.840974 
540.277043  	88.784566 
541.713950  	88.764013 
543.150857  	88.886072 
544.587764  	88.904422 
546.024671  	88.995714 
547.461578  	89.224865 
548.898485  	89.098382 
550.335392  	88.792093 
551.772299  	88.680138 
553.209206  	88.727040 
554.646113  	88.884887 
556.083020  	88.955603 
557.519927  	88.907208 
558.956834  	88.874962 
560.393741  	88.870436 
561.830648  	89.023138 
563.267555  	89.144180 
564.704462  	88.970975 
566.141369  	88.864729 
567.578276  	88.979659 
569.015183  	89.004517 
570.452090  	88.900075 
571.888997  	88.870309 
573.325905  	88.968962 
574.762812  	89.053403 
576.199719  	89.079627 
577.636626  	89.090131 
579.073533  	89.021090 
580.510440  	88.963093 
581.947347  	89.032605 
583.384254  	89.067333 
584.821161  	89.016491 
586.258068  	89.036950 
587.694975  	89.155111 
589.131882  	89.197496 
590.568789  	89.161396 
592.005696  	89.253058 
593.442603  	89.277670 
594.879510  	89.099866 
596.316417  	89.091018 
597.753324  	89.184878 
599.190231  	89.134666 
600.627138  	89.157399 
602.064045  	89.202982 
603.500952  	89.140326 
604.937859  	89.167436 
606.374766  	89.210457 
607.811673  	89.210909 
609.248580  	89.226971 
610.685487  	89.221129 
612.122394  	89.182977 
613.559301  	89.156705 
614.996208  	89.137312 
616.433115  	89.181588 
617.870022  	89.268034 
619.306929  	89.319870 
620.743836  	89.303603 
622.180744  	89.246299 
623.617651  	89.285122 
625.054558  	89.368186 
626.491465  	89.363771 
627.928372  	89.329208 
629.365279  	89.367156 
630.802186  	89.440628 
632.239093  	89.450849 
633.676000  	89.457876 
635.112907  	89.459368 
636.549814  	89.479098 
637.986721  	89.518762 
639.423628  	89.537465 
640.860535  	89.525618 
642.297442  	89.515121 
643.734349  	89.531883 
645.171256  	89.588738 
646.608163  	89.680765 
648.045070  	89.723412 
649.481977  	89.719322 
650.918884  	89.731056 
652.355791  	89.765992 
653.792698  	89.830504 
655.229605  	89.858274 
656.666512  	89.835925 
658.103419  	89.859879 
659.540326  	89.907276 
660.977233  	89.927832 
662.414140  	89.923828 
663.851047  	89.903935 
665.287954  	89.923446 
666.724861  	89.967499 
668.161768  	89.982846 
669.598675  	90.016039 
671.035582  	90.052817 
672.472490  	90.072549 
673.909397  	90.109754 
675.346304  	90.165449 
676.783211  	90.174673 
678.220118  	90.153302 
679.657025  	90.166490 
681.093932  	90.213283 
682.530839  	90.228416 
683.967746  	90.205572 
685.404653  	90.198659 
686.841560  	90.206535 
688.278467  	90.266953 
689.715374  	90.319801 
691.152281  	90.299693 
692.589188  	90.318792 
694.026095  	90.390526 
695.463002  	90.439877 
696.899909  	90.500553 
698.336816  	90.554394 
699.773723  	90.590972 
701.210630  	90.627117 
702.647537  	90.624820 
704.084444  	90.653969 
705.521351  	90.734070 
706.958258  	90.751411 
708.395165  	90.741384 
709.832072  	90.759982 
711.268979  	90.805198 
712.705886  	90.850437 
714.142793  	90.837636 
715.579700  	90.845322 
717.016607  	90.908162 
718.453514  	90.931957 
719.890421  	90.981247 
721.327328  	91.045905 
722.764236  	91.047208 
724.201143  	91.032028 
725.638050  	91.001496 
727.074957  	91.028022 
728.511864  	91.163735 
729.948771  	91.241401 
731.385678  	91.229450 
732.822585  	91.266549 
734.259492  	91.293714 
735.696399  	91.287386 
737.133306  	91.324220 
738.570213  	91.389243 
740.007120  	91.452692 
741.444027  	91.475775 
742.880934  	91.466796 
744.317841  	91.511845 
745.754748  	91.601289 
747.191655  	91.665970 
748.628562  	91.716289 
750.065469  	91.761199 
751.502376  	91.734856 
752.939283  	91.664804 
754.376190  	91.697298 
755.813097  	91.797083 
757.250004  	91.840650 
758.686911  	91.887535 
760.123818  	91.936087 
761.560725  	91.913388 
762.997632  	91.925213 
764.434539  	92.023114 
765.871446  	92.097197 
767.308353  	92.120680 
768.745260  	92.151024 
770.182167  	92.182809 
771.619075  	92.174618 
773.055982  	92.165278 
774.492889  	92.207900 
775.929796  	92.268922 
777.366703  	92.333854 
778.803610  	92.398723 
780.240517  	92.438233 
781.677424  	92.480299 
783.114331  	92.507712 
784.551238  	92.490152 
785.988145  	92.497164 
787.425052  	92.551457 
788.861959  	92.634849 
790.298866  	92.725801 
791.735773  	92.740873 
793.172680  	92.724641 
794.609587  	92.787898 
796.046494  	92.861723 
797.483401  	92.882034 
798.920308  	92.884521 
800.357215  	92.892149 
801.794122  	92.937706 
803.231029  	92.996757 
804.667936  	93.026617 
806.104843  	93.068122 
807.541750  	93.104335 
808.978657  	93.104188 
810.415564  	93.128483 
811.852471  	93.183437 
813.289378  	93.257140 
814.726285  	93.348772 
816.163192  	93.385748 
817.600099  	93.394560 
819.037006  	93.446020 
820.473913  	93.477647 
821.910821  	93.503704 
823.347728  	93.568158 
824.784635  	93.587070 
826.221542  	93.579009 
827.658449  	93.622361 
829.095356  	93.691952 
830.532263  	93.761183 
831.969170  	93.779810 
833.406077  	93.758169 
834.842984  	93.809267 
836.279891  	93.890840 
837.716798  	93.923142 
839.153705  	93.978737 
840.590612  	94.044924 
842.027519  	94.043473 
843.464426  	94.032668 
844.901333  	94.071460 
846.338240  	94.122715 
847.775147  	94.193004 
849.212054  	94.310219 
850.648961  	94.394138 
852.085868  	94.402139 
853.522775  	94.409819 
854.959682  	94.426488 
856.396589  	94.447163 
857.833496  	94.495354 
859.270403  	94.519332 
860.707310  	94.534666 
862.144217  	94.586868 
863.581124  	94.613105 
865.018031  	94.631884 
866.454938  	94.701405 
867.891845  	94.757859 
869.328752  	94.764874 
870.765660  	94.781859 
872.202567  	94.846021 
873.639474  	94.890655 
875.076381  	94.877708 
876.513288  	94.901199 
877.950195  	94.964442 
879.387102  	94.999157 
880.824009  	95.035820 
882.260916  	95.074207 
883.697823  	95.104754 
885.134730  	95.136910 
886.571637  	95.157349 
888.008544  	95.222138 
889.445451  	95.281151 
890.882358  	95.246982 
892.319265  	95.251251 
893.756172  	95.310217 
895.193079  	95.324024 
896.629986  	95.351072 
898.066893  	95.388583 
899.503800  	95.422708 
900.940707  	95.487353 
902.377614  	95.496138 
903.814521  	95.484463 
905.251428  	95.557111 
906.688335  	95.626132 
908.125242  	95.645576 
909.562149  	95.658418 
910.999056  	95.651604 
912.435963  	95.638561 
913.872870  	95.659165 
915.309777  	95.706528 
916.746684  	95.742896 
918.183591  	95.762182 
919.620498  	95.781070 
921.057406  	95.795626 
922.494313  	95.826987 
923.931220  	95.852117 
925.368127  	95.830126 
926.805034  	95.844146 
928.241941  	95.908223 
929.678848  	95.942098 
931.115755  	95.969078 
932.552662  	95.999991 
933.989569  	96.018304 
935.426476  	96.038351 
936.863383  	96.049776 
938.300290  	96.071333 
939.737197  	96.090108 
941.174104  	96.098066 
942.611011  	96.137705 
944.047918  	96.141563 
945.484825  	96.129015 
946.921732  	96.196438 
948.358639  	96.235127 
949.795546  	96.228624 
951.232453  	96.249598 
952.669360  	96.237804 
954.106267  	96.257702 
955.543174  	96.320807 
956.980081  	96.300076 
958.416988  	96.285394 
959.853895  	96.328544 
961.290802  	96.337325 
962.727709  	96.355453 
964.164616  	96.413020 
965.601523  	96.463747 
967.038430  	96.480171 
968.475337  	96.458060 
969.912244  	96.451393 
971.349152  	96.464492 
972.786059  	96.473697 
974.222966  	96.501533 
975.659873  	96.509621 
977.096780  	96.488033 
978.533687  	96.483602 
979.970594  	96.498643 
981.407501  	96.538080 
982.844408  	96.574067 
984.281315  	96.595172 
985.718222  	96.634334 
987.155129  	96.640821 
988.592036  	96.627280 
990.028943  	96.658723 
991.465850  	96.683026 
992.902757  	96.702506 
994.339664  	96.731762 
995.776571  	96.709263 
997.213478  	96.685867 
998.650385  	96.709517 
1000.087292  	96.739351 
1001.524199  	96.780947 
1002.961106  	96.807219 
1004.398013  	96.786110 
1005.834920  	96.772852 
1007.271827  	96.789435 
1008.708734  	96.812875 
1010.145641  	96.839447 
1011.582548  	96.859943 
1013.019455  	96.869120 
1014.456362  	96.878967 
1015.893269  	96.890342 
1017.330176  	96.893501 
1018.767083  	96.898408 
1020.203991  	96.906162 
1021.640898  	96.899385 
1023.077805  	96.900875 
1024.514712  	96.925774 
1025.951619  	96.939813 
1027.388526  	96.929406 
1028.825433  	96.909333 
1030.262340  	96.904714 
1031.699247  	96.919975 
1033.136154  	96.923603 
1034.573061  	96.921187 
1036.009968  	96.926278 
1037.446875  	96.924494 
1038.883782  	96.928974 
1040.320689  	96.951536 
1041.757596  	96.981748 
1043.194503  	96.989153 
1044.631410  	96.962519 
1046.068317  	96.964428 
1047.505224  	96.983396 
1048.942131  	96.968933 
1050.379038  	96.983823 
1051.815945  	97.005136 
1053.252852  	96.969387 
1054.689759  	96.954503 
1056.126666  	96.975337 
1057.563573  	96.992073 
1059.000480  	97.020063 
1060.437387  	97.035304 
1061.874294  	97.040503 
1063.311201  	97.059434 
1064.748108  	97.075266 
1066.185015  	97.078668 
1067.621922  	97.052738 
1069.058829  	97.032271 
1070.495737  	97.044266 
1071.932644  	97.038035 
1073.369551  	97.044723 
1074.806458  	97.070784 
1076.243365  	97.049622 
1077.680272  	97.028445 
1079.117179  	97.025822 
1080.554086  	97.021745 
1081.990993  	97.051785 
1083.427900  	97.072421 
1084.864807  	97.069096 
1086.301714  	97.072299 
1087.738621  	97.049212 
1089.175528  	97.033953 
1090.612435  	97.042786 
1092.049342  	97.031642 
1093.486249  	97.027571 
1094.923156  	97.031027 
1096.360063  	97.036354 
1097.796970  	97.051230 
1099.233877  	97.027423 
1100.670784  	96.998349 
1102.107691  	97.004740 
1103.544598  	97.004923 
1104.981505  	97.013031 
1106.418412  	97.027064 
1107.855319  	97.021360 
1109.292226  	97.022708 
1110.729133  	97.026538 
1112.166040  	97.033987 
1113.602947  	97.048671 
1115.039854  	97.045871 
1116.476761  	97.050883 
1117.913668  	97.068543 
1119.350575  	97.073024 
1120.787483  	97.068156 
1122.224390  	97.046959 
1123.661297  	97.029877 
1125.098204  	97.038067 
1126.535111  	97.059601 
1127.972018  	97.092020 
1129.408925  	97.094923 
1130.845832  	97.071101 
1132.282739  	97.074600 
1133.719646  	97.068370 
1135.156553  	97.043506 
1136.593460  	97.042474 
1138.030367  	97.046256 
1139.467274  	97.052242 
1140.904181  	97.058674 
1142.341088  	97.066045 
1143.777995  	97.094673 
1145.214902  	97.088762 
1146.651809  	97.053054 
1148.088716  	97.059705 
1149.525623  	97.062559 
1150.962530  	97.036054 
1152.399437  	97.027437 
1153.836344  	97.039490 
1155.273251  	97.062213 
1156.710158  	97.062766 
1158.147065  	97.041409 
1159.583972  	97.042359 
1161.020879  	97.029505 
1162.457786  	97.001289 
1163.894693  	97.019781 
1165.331600  	97.044868 
1166.768507  	97.032354 
1168.205414  	97.021692 
1169.642322  	97.027792 
1171.079229  	97.018907 
1172.516136  	96.992252 
1173.953043  	96.991385 
1175.389950  	97.010811 
1176.826857  	97.011364 
1178.263764  	97.016210 
1179.700671  	97.023537 
1181.137578  	97.003044 
1182.574485  	96.983724 
1184.011392  	96.984578 
1185.448299  	96.996864 
1186.885206  	97.007829 
1188.322113  	96.998174 
1189.759020  	96.987332 
1191.195927  	96.983135 
1192.632834  	96.970627 
1194.069741  	96.967787 
1195.506648  	96.967760 
1196.943555  	96.954639 
1198.380462  	96.945972 
1199.817369  	96.946712 
1201.254276  	96.958528 
1202.691183  	96.964229 
1204.128090  	96.946760 
1205.564997  	96.941966 
1207.001904  	96.948672 
1208.438811  	96.944915 
1209.875718  	96.959727 
1211.312625  	96.973753 
1212.749532  	96.951727 
1214.186439  	96.934369 
1215.623346  	96.943167 
1217.060253  	96.946843 
1218.497160  	96.934261 
1219.934068  	96.927841 
1221.370975  	96.937840 
1222.807882  	96.938810 
1224.244789  	96.923082 
1225.681696  	96.913124 
1227.118603  	96.915908 
1228.555510  	96.931028 
1229.992417  	96.948940 
1231.429324  	96.951879 
1232.866231  	96.952087 
1234.303138  	96.960807 
1235.740045  	96.953546 
1237.176952  	96.926108 
1238.613859  	96.919168 
1240.050766  	96.942585 
1241.487673  	96.950918 
1242.924580  	96.934075 
1244.361487  	96.929288 
1245.798394  	96.933742 
1247.235301  	96.920395 
1248.672208  	96.901277 
1250.109115  	96.894132 
1251.546022  	96.890357 
1252.982929  	96.888381 
1254.419836  	96.890923 
1255.856743  	96.879069 
1257.293650  	96.852575 
1258.730557  	96.837217 
1260.167464  	96.832966 
1261.604371  	96.840804 
1263.041278  	96.871693 
1264.478185  	96.892205 
1265.915092  	96.873207 
1267.351999  	96.844123 
1268.788907  	96.835770 
1270.225814  	96.834959 
1271.662721  	96.819912 
1273.099628  	96.806168 
1274.536535  	96.803648 
1275.973442  	96.790416 
1277.410349  	96.779220 
1278.847256  	96.780347 
1280.284163  	96.767990 
1281.721070  	96.764724 
1283.157977  	96.783702 
1284.594884  	96.782999 
1286.031791  	96.775913 
1287.468698  	96.795034 
1288.905605  	96.816454 
1290.342512  	96.816088 
1291.779419  	96.803064 
1293.216326  	96.805902 
1294.653233  	96.823327 
1296.090140  	96.818991 
1297.527047  	96.804482 
1298.963954  	96.812624 
1300.400861  	96.831242 
1301.837768  	96.841585 
1303.274675  	96.843012 
1304.711582  	96.850640 
1306.148489  	96.858680 
1307.585396  	96.856478 
1309.022303  	96.846744 
1310.459210  	96.860435 
1311.896117  	96.858050 
1313.333024  	96.856665 
1314.769931  	96.849037 
1316.206838  	96.856006 
1317.643745  	96.851058 
1319.080653  	96.851246 
1320.517560  	96.842505 
1321.954467  	96.847652 
1323.391374  	96.866460 
1324.828281  	96.861080 
1326.265188  	96.850398 
1327.702095  	96.855611 
1329.139002  	96.859379 
1330.575909  	96.850690 
1332.012816  	96.847011 
1333.449723  	96.845914 
1334.886630  	96.834733 
1336.323537  	96.821002 
1337.760444  	96.809339 
1339.197351  	96.789690 
1340.634258  	96.778242 
1342.071165  	96.791119 
1343.508072  	96.806597 
1344.944979  	96.811044 
1346.381886  	96.803510 
1347.818793  	96.783233 
1349.255700  	96.767883 
1350.692607  	96.772780 
1352.129514  	96.760266 
1353.566421  	96.738147 
1355.003328  	96.717637 
1356.440235  	96.704132 
1357.877142  	96.689265 
1359.314049  	96.684314 
1360.750956  	96.682643 
1362.187863  	96.668864 
1363.624770  	96.630869 
1365.061677  	96.615394 
1366.498584  	96.613830 
1367.935491  	96.582419 
1369.372399  	96.548398 
1370.809306  	96.533557 
1372.246213  	96.519254 
1373.683120  	96.482479 
1375.120027  	96.428817 
1376.556934  	96.414496 
1377.993841  	96.392307 
1379.430748  	96.365632 
1380.867655  	96.333707 
1382.304562  	96.325434 
1383.741469  	96.316831 
1385.178376  	96.308043 
1386.615283  	96.292895 
1388.052190  	96.251463 
1389.489097  	96.235328 
1390.926004  	96.232827 
1392.362911  	96.256081 
1393.799818  	96.262519 
1395.236725  	96.265612 
1396.673632  	96.288376 
1398.110539  	96.325625 
1399.547446  	96.338442 
1400.984353  	96.345053 
1402.421260  	96.382230 
1403.858167  	96.405552 
1405.295074  	96.401445 
1406.731981  	96.412966 
1408.168888  	96.429447 
1409.605795  	96.441342 
1411.042702  	96.447831 
1412.479609  	96.466778 
1413.916516  	96.490931 
1415.353423  	96.508073 
1416.790330  	96.530435 
1418.227238  	96.561911 
1419.664145  	96.536400 
1421.101052  	96.533868 
1422.537959  	96.593768 
1423.974866  	96.595565 
1425.411773  	96.575210 
1426.848680  	96.606023 
1428.285587  	96.627282 
1429.722494  	96.626346 
1431.159401  	96.620728 
1432.596308  	96.615608 
1434.033215  	96.647799 
1435.470122  	96.666854 
1436.907029  	96.627760 
1438.343936  	96.616040 
1439.780843  	96.667538 
1441.217750  	96.675027 
1442.654657  	96.661652 
1444.091564  	96.662213 
1445.528471  	96.676080 
1446.965378  	96.669141 
1448.402285  	96.650472 
1449.839192  	96.662913 
1451.276099  	96.682390 
1452.713006  	96.684194 
1454.149913  	96.695177 
1455.586820  	96.721028 
1457.023727  	96.695468 
1458.460634  	96.638316 
1459.897541  	96.663402 
1461.334448  	96.685962 
1462.771355  	96.723646 
1464.208262  	96.739100 
1465.645169  	96.674854 
1467.082076  	96.663747 
1468.518984  	96.687214 
1469.955891  	96.713471 
1471.392798  	96.724427 
1472.829705  	96.673498 
1474.266612  	96.643258 
1475.703519  	96.674439 
1477.140426  	96.660339 
1478.577333  	96.665952 
1480.014240  	96.691553 
1481.451147  	96.682613 
1482.888054  	96.672813 
1484.324961  	96.679389 
1485.761868  	96.676378 
1487.198775  	96.664636 
1488.635682  	96.644785 
1490.072589  	96.612062 
1491.509496  	96.568168 
1492.946403  	96.577940 
1494.383310  	96.619085 
1495.820217  	96.605336 
1497.257124  	96.553677 
1498.694031  	96.562880 
1500.130938  	96.552430 
1501.567845  	96.535405 
1503.004752  	96.554217 
1504.441659  	96.571509 
1505.878566  	96.568048 
1507.315473  	96.457710 
1508.752380  	96.377532 
1510.189287  	96.438146 
1511.626194  	96.427890 
1513.063101  	96.413077 
1514.500008  	96.450846 
1515.936915  	96.455508 
1517.373822  	96.402138 
1518.810730  	96.407910 
1520.247637  	96.429548 
1521.684544  	96.378506 
