##TITLE=No Description
##DATA TYPE=INFRARED SPECTRUM
##XUNITS=1/CM
##YUNITS=%T
399.460154  	30.716147 
400.897061  	29.954488 
402.333968  	30.531472 
403.770875  	30.437356 
405.207782  	30.250836 
406.644689  	30.167801 
408.081596  	29.760836 
409.518503  	30.331131 
410.955410  	30.979213 
412.392317  	30.261734 
413.829224  	29.664003 
415.266131  	29.377687 
416.703038  	29.373468 
418.139945  	30.611459 
419.576852  	31.008990 
421.013759  	29.779340 
422.450666  	29.772867 
423.887574  	30.539564 
425.324481  	30.843763 
426.761388  	30.361126 
428.198295  	30.180816 
429.635202  	30.344940 
431.072109  	30.629072 
432.509016  	30.986097 
433.945923  	30.427178 
435.382830  	30.115077 
436.819737  	31.216420 
438.256644  	31.342704 
439.693551  	30.562339 
441.130458  	30.705824 
442.567365  	31.117959 
444.004272  	31.040304 
445.441179  	31.023163 
446.878086  	31.128023 
448.314993  	31.263669 
449.751900  	31.172037 
451.188807  	30.993770 
452.625714  	31.068750 
454.062621  	31.019000 
455.499528  	31.362920 
456.936435  	32.219751 
458.373342  	32.127311 
459.810249  	31.384241 
461.247156  	31.083556 
462.684063  	31.028279 
464.120970  	30.892438 
465.557877  	30.772848 
466.994784  	30.979223 
468.431691  	31.351209 
469.868598  	31.529290 
471.305505  	31.386902 
472.742413  	31.042319 
474.179320  	30.992828 
475.616227  	30.999085 
477.053134  	30.943083 
478.490041  	31.102060 
479.926948  	31.058866 
481.363855  	30.968983 
482.800762  	31.283857 
484.237669  	31.539570 
485.674576  	31.698013 
487.111483  	31.966724 
488.548390  	32.127890 
489.985297  	32.124469 
491.422204  	31.875211 
492.859111  	31.680225 
494.296018  	31.735498 
495.732925  	31.735875 
497.169832  	31.794566 
498.606739  	31.836546 
500.043646  	31.762519 
501.480553  	31.955032 
502.917460  	31.991160 
504.354367  	31.733216 
505.791274  	31.808105 
507.228181  	31.884349 
508.665088  	31.840406 
510.101995  	32.073613 
511.538902  	32.393605 
512.975809  	32.529467 
514.412716  	32.431626 
515.849623  	32.370169 
517.286530  	32.446714 
518.723437  	32.322192 
520.160344  	32.298896 
521.597251  	32.507246 
523.034159  	32.520087 
524.471066  	32.623315 
525.907973  	32.873717 
527.344880  	32.884551 
528.781787  	32.883981 
530.218694  	32.929633 
531.655601  	32.922896 
533.092508  	32.937890 
534.529415  	32.867921 
535.966322  	32.811638 
537.403229  	32.922391 
538.840136  	33.100594 
540.277043  	33.230807 
541.713950  	33.310849 
543.150857  	33.526595 
544.587764  	33.681100 
546.024671  	33.585478 
547.461578  	33.635641 
548.898485  	33.763113 
550.335392  	33.786509 
551.772299  	33.986899 
553.209206  	34.155806 
554.646113  	34.111581 
556.083020  	34.116305 
557.519927  	34.196632 
558.956834  	34.360095 
560.393741  	34.537193 
561.830648  	34.601761 
563.267555  	34.661020 
564.704462  	34.684559 
566.141369  	34.717409 
567.578276  	34.903783 
569.015183  	35.077881 
570.452090  	35.137787 
571.888997  	35.185984 
573.325905  	35.286773 
574.762812  	35.363177 
576.199719  	35.367682 
577.636626  	35.534590 
579.073533  	35.759442 
580.510440  	35.782301 
581.947347  	35.851282 
583.384254  	36.012032 
584.821161  	36.089214 
586.258068  	36.206808 
587.694975  	36.297880 
589.131882  	36.353496 
590.568789  	36.519573 
592.005696  	36.665254 
593.442603  	36.802185 
594.879510  	36.955623 
596.316417  	36.992987 
597.753324  	37.047022 
599.190231  	37.190011 
600.627138  	37.345461 
602.064045  	37.522541 
603.500952  	37.682386 
604.937859  	37.826750 
606.374766  	37.956230 
607.811673  	37.981282 
609.248580  	38.058966 
610.685487  	38.171162 
612.122394  	38.277723 
613.559301  	38.452019 
614.996208  	38.625713 
616.433115  	38.800675 
617.870022  	39.008888 
619.306929  	39.122496 
620.743836  	39.184646 
622.180744  	39.286778 
623.617651  	39.434929 
625.054558  	39.603512 
626.491465  	39.730625 
627.928372  	39.871072 
629.365279  	40.036425 
630.802186  	40.160114 
632.239093  	40.332414 
633.676000  	40.494237 
635.112907  	40.581405 
636.549814  	40.725662 
637.986721  	40.899851 
639.423628  	40.996564 
640.860535  	41.130539 
642.297442  	41.310419 
643.734349  	41.485266 
645.171256  	41.654035 
646.608163  	41.808012 
648.045070  	41.976463 
649.481977  	42.105253 
650.918884  	42.209026 
652.355791  	42.401141 
653.792698  	42.599311 
655.229605  	42.762067 
656.666512  	42.955534 
658.103419  	43.120957 
659.540326  	43.247212 
660.977233  	43.423669 
662.414140  	43.623861 
663.851047  	43.788309 
665.287954  	43.861514 
666.724861  	43.967637 
668.161768  	44.227284 
669.598675  	44.552327 
671.035582  	44.668308 
672.472490  	44.778981 
673.909397  	44.990259 
675.346304  	45.205698 
676.783211  	45.366263 
678.220118  	45.540985 
679.657025  	45.722501 
681.093932  	45.905013 
682.530839  	46.102488 
683.967746  	46.314399 
685.404653  	46.547525 
686.841560  	46.732802 
688.278467  	46.844364 
689.715374  	47.010074 
691.152281  	47.204243 
692.589188  	47.365943 
694.026095  	47.581430 
695.463002  	47.814076 
696.899909  	48.022069 
698.336816  	48.228895 
699.773723  	48.434957 
701.210630  	48.634981 
702.647537  	48.821591 
704.084444  	49.039738 
705.521351  	49.277072 
706.958258  	49.474685 
708.395165  	49.637456 
709.832072  	49.827637 
711.268979  	50.055549 
712.705886  	50.279558 
714.142793  	50.481144 
715.579700  	50.686429 
717.016607  	50.901738 
718.453514  	51.096408 
719.890421  	51.320986 
721.327328  	51.551216 
722.764236  	51.712609 
724.201143  	51.875239 
725.638050  	52.078426 
727.074957  	52.301162 
728.511864  	52.534119 
729.948771  	52.726525 
731.385678  	52.895546 
732.822585  	53.148649 
734.259492  	53.424351 
735.696399  	53.632440 
737.133306  	53.838849 
738.570213  	54.105722 
740.007120  	54.389804 
741.444027  	54.620667 
742.880934  	54.805610 
744.317841  	54.996978 
745.754748  	55.219650 
747.191655  	55.491967 
748.628562  	55.779512 
750.065469  	56.023617 
751.502376  	56.260130 
752.939283  	56.498469 
754.376190  	56.668626 
755.813097  	56.815510 
757.250004  	57.041833 
758.686911  	57.315606 
760.123818  	57.568881 
761.560725  	57.812244 
762.997632  	58.070808 
764.434539  	58.335884 
765.871446  	58.551989 
767.308353  	58.711311 
768.745260  	58.911264 
770.182167  	59.165853 
771.619075  	59.416408 
773.055982  	59.686065 
774.492889  	59.946673 
775.929796  	60.157796 
777.366703  	60.379960 
778.803610  	60.622421 
780.240517  	60.874203 
781.677424  	61.131239 
783.114331  	61.332043 
784.551238  	61.532355 
785.988145  	61.816467 
787.425052  	62.110550 
788.861959  	62.374774 
790.298866  	62.624920 
791.735773  	62.838656 
793.172680  	63.050677 
794.609587  	63.297933 
796.046494  	63.545416 
797.483401  	63.785934 
798.920308  	64.068259 
800.357215  	64.384536 
801.794122  	64.649012 
803.231029  	64.852398 
804.667936  	65.070757 
806.104843  	65.330562 
807.541750  	65.584802 
808.978657  	65.790397 
810.415564  	65.999316 
811.852471  	66.274601 
813.289378  	66.588461 
814.726285  	66.898209 
816.163192  	67.150818 
817.600099  	67.351871 
819.037006  	67.585541 
820.473913  	67.823342 
821.910821  	68.060563 
823.347728  	68.349265 
824.784635  	68.614222 
826.221542  	68.863833 
827.658449  	69.123711 
829.095356  	69.325083 
830.532263  	69.558587 
831.969170  	69.848768 
833.406077  	70.100811 
834.842984  	70.348453 
836.279891  	70.567985 
837.716798  	70.773641 
839.153705  	71.040759 
840.590612  	71.297036 
842.027519  	71.579640 
843.464426  	71.917454 
844.901333  	72.171436 
846.338240  	72.364966 
847.775147  	72.567724 
849.212054  	72.805783 
850.648961  	73.102915 
852.085868  	73.355964 
853.522775  	73.583620 
854.959682  	73.857288 
856.396589  	74.093502 
857.833496  	74.325910 
859.270403  	74.584715 
860.707310  	74.808679 
862.144217  	75.041515 
863.581124  	75.277999 
865.018031  	75.502521 
866.454938  	75.759179 
867.891845  	76.015964 
869.328752  	76.247650 
870.765660  	76.449116 
872.202567  	76.653103 
873.639474  	76.907465 
875.076381  	77.151012 
876.513288  	77.377951 
877.950195  	77.608206 
879.387102  	77.798651 
880.824009  	78.001142 
882.260916  	78.237984 
883.697823  	78.482258 
885.134730  	78.720220 
886.571637  	78.888371 
888.008544  	79.058413 
889.445451  	79.282602 
890.882358  	79.470156 
892.319265  	79.673020 
893.756172  	79.902093 
895.193079  	80.080945 
896.629986  	80.253609 
898.066893  	80.423647 
899.503800  	80.602610 
900.940707  	80.791872 
902.377614  	80.933813 
903.814521  	81.106756 
905.251428  	81.306127 
906.688335  	81.457076 
908.125242  	81.630792 
909.562149  	81.806395 
910.999056  	81.972262 
912.435963  	82.159765 
913.872870  	82.287545 
915.309777  	82.430146 
916.746684  	82.644693 
918.183591  	82.817353 
919.620498  	82.975793 
921.057406  	83.136848 
922.494313  	83.261462 
923.931220  	83.394712 
925.368127  	83.534685 
926.805034  	83.692441 
928.241941  	83.862453 
929.678848  	83.995429 
931.115755  	84.132766 
932.552662  	84.278948 
933.989569  	84.409414 
935.426476  	84.523869 
936.863383  	84.611276 
938.300290  	84.721106 
939.737197  	84.831397 
941.174104  	84.937903 
942.611011  	85.112345 
944.047918  	85.230293 
945.484825  	85.284812 
946.921732  	85.422300 
948.358639  	85.533242 
949.795546  	85.598364 
951.232453  	85.723834 
952.669360  	85.845136 
954.106267  	85.953602 
955.543174  	86.060306 
956.980081  	86.149915 
958.416988  	86.249318 
959.853895  	86.332337 
961.290802  	86.443939 
962.727709  	86.562282 
964.164616  	86.587050 
965.601523  	86.641559 
967.038430  	86.752022 
968.475337  	86.824711 
969.912244  	86.919947 
971.349152  	86.994681 
972.786059  	87.031135 
974.222966  	87.109610 
975.659873  	87.169629 
977.096780  	87.238554 
978.533687  	87.352094 
979.970594  	87.414757 
981.407501  	87.464307 
982.844408  	87.536038 
984.281315  	87.590518 
985.718222  	87.650721 
987.155129  	87.709770 
988.592036  	87.751730 
990.028943  	87.778864 
991.465850  	87.820321 
992.902757  	87.909262 
994.339664  	87.970860 
995.776571  	87.986967 
997.213478  	88.012328 
998.650385  	88.033389 
1000.087292  	88.078091 
1001.524199  	88.132606 
1002.961106  	88.141556 
1004.398013  	88.152817 
1005.834920  	88.172651 
1007.271827  	88.198625 
1008.708734  	88.254297 
1010.145641  	88.295299 
1011.582548  	88.327562 
1013.019455  	88.358015 
1014.456362  	88.383741 
1015.893269  	88.442016 
1017.330176  	88.487734 
1018.767083  	88.536360 
1020.203991  	88.611905 
1021.640898  	88.627673 
1023.077805  	88.650506 
1024.514712  	88.703394 
1025.951619  	88.684227 
1027.388526  	88.671867 
1028.825433  	88.681777 
1030.262340  	88.657519 
1031.699247  	88.658795 
1033.136154  	88.655361 
1034.573061  	88.643633 
1036.009968  	88.668093 
1037.446875  	88.681682 
1038.883782  	88.715127 
1040.320689  	88.757771 
1041.757596  	88.752084 
1043.194503  	88.780987 
1044.631410  	88.864299 
1046.068317  	88.942492 
1047.505224  	88.981786 
1048.942131  	88.993514 
1050.379038  	89.066313 
1051.815945  	89.144275 
1053.252852  	89.153457 
1054.689759  	89.191593 
1056.126666  	89.236391 
1057.563573  	89.252618 
1059.000480  	89.296865 
1060.437387  	89.329617 
1061.874294  	89.363924 
1063.311201  	89.419185 
1064.748108  	89.440446 
1066.185015  	89.447818 
1067.621922  	89.446194 
1069.058829  	89.446414 
1070.495737  	89.467244 
1071.932644  	89.466736 
1073.369551  	89.479800 
1074.806458  	89.505282 
1076.243365  	89.502590 
1077.680272  	89.525834 
1079.117179  	89.538136 
1080.554086  	89.512716 
1081.990993  	89.516839 
1083.427900  	89.528255 
1084.864807  	89.529492 
1086.301714  	89.519291 
1087.738621  	89.504191 
1089.175528  	89.521145 
1090.612435  	89.507950 
1092.049342  	89.473473 
1093.486249  	89.490231 
1094.923156  	89.507300 
1096.360063  	89.532091 
1097.796970  	89.566402 
1099.233877  	89.568170 
1100.670784  	89.586693 
1102.107691  	89.583406 
1103.544598  	89.553482 
1104.981505  	89.585441 
1106.418412  	89.622842 
1107.855319  	89.649805 
1109.292226  	89.688999 
1110.729133  	89.688402 
1112.166040  	89.691364 
1113.602947  	89.698136 
1115.039854  	89.682804 
1116.476761  	89.711063 
1117.913668  	89.754417 
1119.350575  	89.772160 
1120.787483  	89.777202 
1122.224390  	89.785302 
1123.661297  	89.828176 
1125.098204  	89.831273 
1126.535111  	89.800529 
1127.972018  	89.844837 
1129.408925  	89.878443 
1130.845832  	89.867475 
1132.282739  	89.878354 
1133.719646  	89.870409 
1135.156553  	89.873909 
1136.593460  	89.898103 
1138.030367  	89.898497 
1139.467274  	89.914117 
1140.904181  	89.903794 
1142.341088  	89.871995 
1143.777995  	89.897659 
1145.214902  	89.924514 
1146.651809  	89.935323 
1148.088716  	89.946436 
1149.525623  	89.934976 
1150.962530  	89.933034 
1152.399437  	89.913869 
1153.836344  	89.886345 
1155.273251  	89.908672 
1156.710158  	89.913916 
1158.147065  	89.887657 
1159.583972  	89.865568 
1161.020879  	89.847881 
1162.457786  	89.873526 
1163.894693  	89.890084 
1165.331600  	89.865544 
1166.768507  	89.865172 
1168.205414  	89.856411 
1169.642322  	89.842488 
1171.079229  	89.853171 
1172.516136  	89.842367 
1173.953043  	89.841101 
1175.389950  	89.853118 
1176.826857  	89.846937 
1178.263764  	89.853618 
1179.700671  	89.849028 
1181.137578  	89.846489 
1182.574485  	89.861493 
1184.011392  	89.834809 
1185.448299  	89.819405 
1186.885206  	89.834034 
1188.322113  	89.812520 
1189.759020  	89.798401 
1191.195927  	89.803781 
1192.632834  	89.799514 
1194.069741  	89.794829 
1195.506648  	89.780848 
1196.943555  	89.794249 
1198.380462  	89.824631 
1199.817369  	89.811367 
1201.254276  	89.791380 
1202.691183  	89.771824 
1204.128090  	89.745384 
1205.564997  	89.749990 
1207.001904  	89.757170 
1208.438811  	89.759915 
1209.875718  	89.770170 
1211.312625  	89.762512 
1212.749532  	89.763203 
1214.186439  	89.773848 
1215.623346  	89.769396 
1217.060253  	89.765404 
1218.497160  	89.756204 
1219.934068  	89.748433 
1221.370975  	89.747063 
1222.807882  	89.743035 
1224.244789  	89.759345 
1225.681696  	89.767809 
1227.118603  	89.745375 
1228.555510  	89.734368 
1229.992417  	89.734187 
1231.429324  	89.733619 
1232.866231  	89.731602 
1234.303138  	89.725834 
1235.740045  	89.736935 
1237.176952  	89.742054 
1238.613859  	89.729613 
1240.050766  	89.726576 
1241.487673  	89.716963 
1242.924580  	89.703854 
1244.361487  	89.698289 
1245.798394  	89.689962 
1247.235301  	89.688814 
1248.672208  	89.676804 
1250.109115  	89.656797 
1251.546022  	89.653877 
1252.982929  	89.646755 
1254.419836  	89.644565 
1255.856743  	89.646573 
1257.293650  	89.630335 
1258.730557  	89.619543 
1260.167464  	89.608765 
1261.604371  	89.611555 
1263.041278  	89.639685 
1264.478185  	89.631701 
1265.915092  	89.608748 
1267.351999  	89.601178 
1268.788907  	89.583850 
1270.225814  	89.592956 
1271.662721  	89.598701 
1273.099628  	89.568364 
1274.536535  	89.565022 
1275.973442  	89.566946 
1277.410349  	89.552943 
1278.847256  	89.546196 
1280.284163  	89.535146 
1281.721070  	89.547288 
1283.157977  	89.565630 
1284.594884  	89.562821 
1286.031791  	89.576386 
1287.468698  	89.575054 
1288.905605  	89.566786 
1290.342512  	89.595871 
1291.779419  	89.608778 
1293.216326  	89.605914 
1294.653233  	89.604113 
1296.090140  	89.599348 
1297.527047  	89.630758 
1298.963954  	89.654136 
1300.400861  	89.645267 
1301.837768  	89.648950 
1303.274675  	89.646560 
1304.711582  	89.654834 
1306.148489  	89.670069 
1307.585396  	89.670053 
1309.022303  	89.679888 
1310.459210  	89.694324 
1311.896117  	89.693790 
1313.333024  	89.681701 
1314.769931  	89.671797 
1316.206838  	89.688668 
1317.643745  	89.696123 
1319.080653  	89.676338 
1320.517560  	89.690011 
1321.954467  	89.697387 
1323.391374  	89.690917 
1324.828281  	89.714317 
1326.265188  	89.712626 
1327.702095  	89.703447 
1329.139002  	89.703815 
1330.575909  	89.682756 
1332.012816  	89.672101 
1333.449723  	89.666107 
1334.886630  	89.629397 
1336.323537  	89.629862 
1337.760444  	89.609891 
1339.197351  	89.547928 
1340.634258  	89.540569 
1342.071165  	89.556111 
1343.508072  	89.581804 
1344.944979  	89.600326 
1346.381886  	89.581669 
1347.818793  	89.567597 
1349.255700  	89.550796 
1350.692607  	89.537519 
1352.129514  	89.528164 
1353.566421  	89.505457 
1355.003328  	89.489403 
1356.440235  	89.489965 
1357.877142  	89.470974 
1359.314049  	89.458738 
1360.750956  	89.437086 
1362.187863  	89.393405 
1363.624770  	89.369045 
1365.061677  	89.360893 
1366.498584  	89.352649 
1367.935491  	89.316686 
1369.372399  	89.257971 
1370.809306  	89.223014 
1372.246213  	89.183899 
1373.683120  	89.132383 
1375.120027  	89.098719 
1376.556934  	89.072909 
1377.993841  	89.028099 
1379.430748  	88.997557 
1380.867655  	88.953810 
1382.304562  	88.943741 
1383.741469  	88.933777 
1385.178376  	88.908758 
1386.615283  	88.889711 
1388.052190  	88.865380 
1389.489097  	88.848657 
1390.926004  	88.862876 
1392.362911  	88.868267 
1393.799818  	88.869291 
1395.236725  	88.878438 
1396.673632  	88.885072 
1398.110539  	88.922142 
1399.547446  	88.948370 
1400.984353  	88.964841 
1402.421260  	88.997347 
1403.858167  	89.012159 
1405.295074  	89.024357 
1406.731981  	89.067839 
1408.168888  	89.084981 
1409.605795  	89.101708 
1411.042702  	89.123262 
1412.479609  	89.137691 
1413.916516  	89.173595 
1415.353423  	89.188976 
1416.790330  	89.198481 
1418.227238  	89.238616 
1419.664145  	89.232156 
1421.101052  	89.256949 
1422.537959  	89.296387 
1423.974866  	89.294730 
1425.411773  	89.312278 
1426.848680  	89.345579 
1428.285587  	89.369121 
1429.722494  	89.375591 
1431.159401  	89.337673 
1432.596308  	89.340134 
1434.033215  	89.365238 
1435.470122  	89.348047 
1436.907029  	89.326068 
1438.343936  	89.321446 
1439.780843  	89.330904 
1441.217750  	89.347562 
1442.654657  	89.331075 
1444.091564  	89.356063 
1445.528471  	89.361129 
1446.965378  	89.335681 
1448.402285  	89.327037 
1449.839192  	89.340315 
1451.276099  	89.336951 
1452.713006  	89.327514 
1454.149913  	89.299161 
1455.586820  	89.295994 
1457.023727  	89.295368 
1458.460634  	89.228846 
1459.897541  	89.252645 
1461.334448  	89.270806 
1462.771355  	89.282279 
1464.208262  	89.274736 
1465.645169  	89.231426 
1467.082076  	89.210764 
1468.518984  	89.227978 
1469.955891  	89.217563 
1471.392798  	89.201858 
1472.829705  	89.135997 
1474.266612  	89.107287 
1475.703519  	89.136083 
1477.140426  	89.130304 
1478.577333  	89.130312 
1480.014240  	89.132456 
1481.451147  	89.094890 
1482.888054  	89.069799 
1484.324961  	89.068163 
1485.761868  	89.021275 
1487.198775  	88.983709 
1488.635682  	88.927077 
1490.072589  	88.867206 
1491.509496  	88.856329 
1492.946403  	88.811720 
1494.383310  	88.797932 
1495.820217  	88.774840 
1497.257124  	88.704343 
1498.694031  	88.689264 
1500.130938  	88.649364 
1501.567845  	88.600945 
1503.004752  	88.579754 
1504.441659  	88.546565 
1505.878566  	88.518857 
1507.315473  	88.399841 
1508.752380  	88.286629 
1510.189287  	88.305719 
1511.626194  	88.276700 
1513.063101  	88.237799 
1514.500008  	88.216082 
1515.936915  	88.129563 
1517.373822  	88.037855 
1518.810730  	88.030384 
1520.247637  	87.975000 
1521.684544  	87.926073 
