##TITLE=No Description
##DATA TYPE=INFRARED SPECTRUM
##XUNITS=1/CM
##YUNITS=%T
399.460154  	33.336802 
400.897061  	33.120667 
402.333968  	33.850370 
403.770875  	33.393514 
405.207782  	33.316968 
406.644689  	34.389404 
408.081596  	33.714287 
409.518503  	33.444360 
410.955410  	33.435256 
412.392317  	32.838525 
413.829224  	33.663647 
415.266131  	33.727861 
416.703038  	33.337612 
418.139945  	34.267886 
419.576852  	33.402420 
421.013759  	33.263782 
422.450666  	33.116083 
423.887574  	32.981044 
425.324481  	34.174528 
426.761388  	33.674642 
428.198295  	32.620772 
429.635202  	33.418887 
431.072109  	33.489904 
432.509016  	33.118400 
433.945923  	33.585325 
435.382830  	33.450806 
436.819737  	33.510736 
438.256644  	33.251754 
439.693551  	32.916155 
441.130458  	33.949993 
442.567365  	34.478269 
444.004272  	34.241019 
445.441179  	34.577826 
446.878086  	34.345960 
448.314993  	33.959532 
449.751900  	33.677581 
451.188807  	33.203935 
452.625714  	33.335815 
454.062621  	33.689008 
455.499528  	33.879642 
456.936435  	34.190660 
458.373342  	34.289850 
459.810249  	34.377209 
461.247156  	34.109336 
462.684063  	33.795051 
464.120970  	33.987961 
465.557877  	34.113748 
466.994784  	34.285897 
468.431691  	34.372945 
469.868598  	34.144658 
471.305505  	34.131677 
472.742413  	34.171011 
474.179320  	34.488343 
475.616227  	34.726600 
477.053134  	34.115288 
478.490041  	33.847566 
479.926948  	34.204030 
481.363855  	34.229680 
482.800762  	34.246064 
484.237669  	34.299485 
485.674576  	34.339933 
487.111483  	34.547721 
488.548390  	34.527466 
489.985297  	34.561996 
491.422204  	34.493844 
492.859111  	34.342342 
494.296018  	34.787344 
495.732925  	34.990421 
497.169832  	34.969976 
498.606739  	35.176132 
500.043646  	34.687534 
501.480553  	34.138230 
502.917460  	34.509514 
504.354367  	34.672411 
505.791274  	34.691466 
507.228181  	34.913773 
508.665088  	34.910906 
510.101995  	34.912602 
511.538902  	34.915204 
512.975809  	34.885665 
514.412716  	35.046019 
515.849623  	35.236135 
517.286530  	35.316327 
518.723437  	35.228770 
520.160344  	35.266044 
521.597251  	35.497004 
523.034159  	35.357095 
524.471066  	35.117715 
525.907973  	35.247188 
527.344880  	35.423703 
528.781787  	35.550213 
530.218694  	35.577239 
531.655601  	35.582976 
533.092508  	35.816327 
534.529415  	35.839183 
535.966322  	35.657585 
537.403229  	35.811499 
538.840136  	36.051793 
540.277043  	36.168551 
541.713950  	36.283740 
543.150857  	36.307284 
544.587764  	36.224767 
546.024671  	36.173552 
547.461578  	36.354297 
548.898485  	36.522226 
550.335392  	36.414187 
551.772299  	36.514529 
553.209206  	36.793362 
554.646113  	36.841759 
556.083020  	36.920915 
557.519927  	37.015571 
558.956834  	36.956112 
560.393741  	37.008465 
561.830648  	37.140336 
563.267555  	37.310767 
564.704462  	37.522162 
566.141369  	37.566367 
567.578276  	37.584271 
569.015183  	37.714810 
570.452090  	37.795425 
571.888997  	37.867423 
573.325905  	37.934180 
574.762812  	37.972807 
576.199719  	38.129188 
577.636626  	38.268888 
579.073533  	38.253388 
580.510440  	38.317132 
581.947347  	38.531678 
583.384254  	38.666791 
584.821161  	38.715713 
586.258068  	38.829364 
587.694975  	38.984500 
589.131882  	39.102913 
590.568789  	39.197324 
592.005696  	39.296697 
593.442603  	39.395191 
594.879510  	39.475697 
596.316417  	39.560326 
597.753324  	39.681691 
599.190231  	39.818780 
600.627138  	39.993126 
602.064045  	40.183463 
603.500952  	40.313658 
604.937859  	40.436396 
606.374766  	40.553613 
607.811673  	40.678149 
609.248580  	40.808103 
610.685487  	40.913168 
612.122394  	40.993984 
613.559301  	41.124403 
614.996208  	41.315246 
616.433115  	41.466904 
617.870022  	41.477017 
619.306929  	41.549527 
620.743836  	41.785660 
622.180744  	41.952858 
623.617651  	42.069048 
625.054558  	42.277397 
626.491465  	42.442414 
627.928372  	42.564039 
629.365279  	42.755509 
630.802186  	42.924249 
632.239093  	42.996374 
633.676000  	43.052008 
635.112907  	43.211087 
636.549814  	43.427577 
637.986721  	43.539272 
639.423628  	43.610241 
640.860535  	43.736498 
642.297442  	43.873697 
643.734349  	44.022347 
645.171256  	44.186927 
646.608163  	44.335727 
648.045070  	44.487059 
649.481977  	44.696684 
650.918884  	44.880721 
652.355791  	45.007492 
653.792698  	45.154071 
655.229605  	45.311340 
656.666512  	45.457594 
658.103419  	45.671642 
659.540326  	45.911357 
660.977233  	46.075976 
662.414140  	46.251938 
663.851047  	46.437244 
665.287954  	46.644736 
666.724861  	46.957238 
668.161768  	46.911825 
669.598675  	46.935350 
671.035582  	47.057031 
672.472490  	47.308724 
673.909397  	47.505001 
675.346304  	47.706684 
676.783211  	47.921085 
678.220118  	48.002592 
679.657025  	48.159499 
681.093932  	48.425960 
682.530839  	48.613909 
683.967746  	48.785549 
685.404653  	48.998864 
686.841560  	49.228707 
688.278467  	49.478429 
689.715374  	49.633919 
691.152281  	49.777075 
692.589188  	50.034451 
694.026095  	50.339301 
695.463002  	50.611756 
696.899909  	50.802751 
698.336816  	50.973162 
699.773723  	51.229419 
701.210630  	51.454193 
702.647537  	51.631616 
704.084444  	51.903547 
705.521351  	52.139882 
706.958258  	52.294265 
708.395165  	52.511359 
709.832072  	52.758804 
711.268979  	52.967162 
712.705886  	53.163327 
714.142793  	53.359657 
715.579700  	53.573012 
717.016607  	53.776491 
718.453514  	53.959786 
719.890421  	54.159517 
721.327328  	54.382716 
722.764236  	54.632348 
724.201143  	54.859925 
725.638050  	55.046751 
727.074957  	55.265866 
728.511864  	55.488804 
729.948771  	55.679472 
731.385678  	55.902479 
732.822585  	56.157179 
734.259492  	56.406778 
735.696399  	56.655614 
737.133306  	56.913824 
738.570213  	57.144997 
740.007120  	57.295705 
741.444027  	57.456490 
742.880934  	57.728081 
744.317841  	58.019852 
745.754748  	58.284730 
747.191655  	58.544613 
748.628562  	58.772903 
750.065469  	59.014221 
751.502376  	59.230707 
752.939283  	59.419272 
754.376190  	59.735251 
755.813097  	60.055598 
757.250004  	60.235180 
758.686911  	60.461031 
760.123818  	60.756346 
761.560725  	61.007678 
762.997632  	61.239575 
764.434539  	61.449315 
765.871446  	61.669459 
767.308353  	61.953007 
768.745260  	62.234839 
770.182167  	62.474093 
771.619075  	62.702245 
773.055982  	62.949534 
774.492889  	63.209615 
775.929796  	63.445323 
777.366703  	63.663936 
778.803610  	63.914347 
780.240517  	64.220238 
781.677424  	64.524171 
783.114331  	64.769485 
784.551238  	64.993992 
785.988145  	65.209171 
787.425052  	65.440749 
788.861959  	65.753459 
790.298866  	66.060299 
791.735773  	66.303822 
793.172680  	66.566554 
794.609587  	66.843610 
796.046494  	67.120102 
797.483401  	67.407634 
798.920308  	67.657183 
800.357215  	67.866043 
801.794122  	68.086155 
803.231029  	68.359134 
804.667936  	68.650403 
806.104843  	68.900485 
807.541750  	69.161317 
808.978657  	69.444810 
810.415564  	69.709721 
811.852471  	69.976959 
813.289378  	70.226196 
814.726285  	70.486668 
816.163192  	70.794265 
817.600099  	71.059733 
819.037006  	71.311825 
820.473913  	71.614887 
821.910821  	71.896018 
823.347728  	72.128583 
824.784635  	72.347514 
826.221542  	72.611681 
827.658449  	72.917539 
829.095356  	73.187991 
830.532263  	73.473692 
831.969170  	73.771126 
833.406077  	73.994802 
834.842984  	74.232186 
836.279891  	74.506139 
837.716798  	74.750228 
839.153705  	75.002038 
840.590612  	75.264146 
842.027519  	75.532384 
843.464426  	75.809201 
844.901333  	76.065211 
846.338240  	76.342669 
847.775147  	76.651697 
849.212054  	76.944035 
850.648961  	77.199290 
852.085868  	77.416868 
853.522775  	77.650712 
854.959682  	77.915840 
856.396589  	78.181737 
857.833496  	78.445954 
859.270403  	78.690909 
860.707310  	78.950035 
862.144217  	79.227186 
863.581124  	79.482670 
865.018031  	79.764341 
866.454938  	80.041145 
867.891845  	80.302140 
869.328752  	80.592619 
870.765660  	80.799081 
872.202567  	80.978431 
873.639474  	81.255229 
875.076381  	81.509560 
876.513288  	81.746575 
877.950195  	81.996901 
879.387102  	82.203533 
880.824009  	82.433984 
882.260916  	82.664277 
883.697823  	82.895740 
885.134730  	83.173392 
886.571637  	83.390990 
888.008544  	83.595480 
889.445451  	83.815590 
890.882358  	83.981719 
892.319265  	84.195457 
893.756172  	84.411239 
895.193079  	84.584684 
896.629986  	84.822208 
898.066893  	85.038300 
899.503800  	85.225876 
900.940707  	85.437797 
902.377614  	85.619810 
903.814521  	85.826399 
905.251428  	86.001597 
906.688335  	86.134962 
908.125242  	86.347609 
909.562149  	86.510878 
910.999056  	86.621586 
912.435963  	86.800851 
913.872870  	86.985971 
915.309777  	87.216612 
916.746684  	87.440009 
918.183591  	87.581452 
919.620498  	87.773319 
921.057406  	87.954634 
922.494313  	88.099178 
923.931220  	88.283547 
925.368127  	88.420990 
926.805034  	88.582806 
928.241941  	88.787219 
929.678848  	88.928755 
931.115755  	89.077462 
932.552662  	89.187001 
933.989569  	89.277795 
935.426476  	89.453389 
936.863383  	89.573139 
938.300290  	89.683517 
939.737197  	89.858583 
941.174104  	89.955314 
942.611011  	90.045275 
944.047918  	90.174099 
945.484825  	90.287390 
946.921732  	90.429305 
948.358639  	90.539730 
949.795546  	90.629433 
951.232453  	90.747864 
952.669360  	90.847429 
954.106267  	90.969008 
955.543174  	91.075319 
956.980081  	91.147654 
958.416988  	91.265149 
959.853895  	91.376016 
961.290802  	91.508000 
962.727709  	91.644430 
964.164616  	91.682473 
965.601523  	91.756052 
967.038430  	91.865073 
968.475337  	91.916311 
969.912244  	92.013863 
971.349152  	92.134333 
972.786059  	92.247651 
974.222966  	92.356019 
975.659873  	92.389790 
977.096780  	92.452418 
978.533687  	92.546223 
979.970594  	92.587402 
981.407501  	92.668932 
982.844408  	92.751061 
984.281315  	92.786585 
985.718222  	92.826241 
987.155129  	92.856058 
988.592036  	92.946986 
990.028943  	93.056324 
991.465850  	93.072951 
992.902757  	93.078579 
994.339664  	93.077686 
995.776571  	93.082807 
997.213478  	93.142998 
998.650385  	93.159426 
1000.087292  	93.157622 
1001.524199  	93.180729 
1002.961106  	93.172595 
1004.398013  	93.183637 
1005.834920  	93.210630 
1007.271827  	93.234619 
1008.708734  	93.271519 
1010.145641  	93.282757 
1011.582548  	93.342246 
1013.019455  	93.445802 
1014.456362  	93.487431 
1015.893269  	93.524493 
1017.330176  	93.572754 
1018.767083  	93.614777 
1020.203991  	93.647028 
1021.640898  	93.611432 
1023.077805  	93.606527 
1024.514712  	93.666443 
1025.951619  	93.684544 
1027.388526  	93.686279 
1028.825433  	93.651057 
1030.262340  	93.580905 
1031.699247  	93.542589 
1033.136154  	93.477419 
1034.573061  	93.436017 
1036.009968  	93.465180 
1037.446875  	93.479161 
1038.883782  	93.496629 
1040.320689  	93.498245 
1041.757596  	93.507420 
1043.194503  	93.602407 
1044.631410  	93.654187 
1046.068317  	93.665407 
1047.505224  	93.747687 
1048.942131  	93.833630 
1050.379038  	93.901310 
1051.815945  	93.934493 
1053.252852  	93.951136 
1054.689759  	94.019700 
1056.126666  	94.067257 
1057.563573  	94.118209 
1059.000480  	94.187930 
1060.437387  	94.194131 
1061.874294  	94.244155 
1063.311201  	94.311675 
1064.748108  	94.313848 
1066.185015  	94.365751 
1067.621922  	94.404831 
1069.058829  	94.395471 
1070.495737  	94.405384 
1071.932644  	94.378803 
1073.369551  	94.394180 
1074.806458  	94.462153 
1076.243365  	94.480391 
1077.680272  	94.517900 
1079.117179  	94.552883 
1080.554086  	94.549028 
1081.990993  	94.542685 
1083.427900  	94.513730 
1084.864807  	94.540936 
1086.301714  	94.585031 
1087.738621  	94.551083 
1089.175528  	94.532526 
1090.612435  	94.521894 
1092.049342  	94.531759 
1093.486249  	94.586896 
1094.923156  	94.577359 
1096.360063  	94.589138 
1097.796970  	94.646141 
1099.233877  	94.654023 
1100.670784  	94.706496 
1102.107691  	94.740406 
1103.544598  	94.710376 
1104.981505  	94.730852 
1106.418412  	94.730854 
1107.855319  	94.751123 
1109.292226  	94.838720 
1110.729133  	94.846320 
1112.166040  	94.825734 
1113.602947  	94.817601 
1115.039854  	94.785865 
1116.476761  	94.791512 
1117.913668  	94.768628 
1119.350575  	94.724418 
1120.787483  	94.743253 
1122.224390  	94.750014 
1123.661297  	94.738381 
1125.098204  	94.734652 
1126.535111  	94.735167 
1127.972018  	94.744634 
1129.408925  	94.692998 
1130.845832  	94.645341 
1132.282739  	94.678884 
1133.719646  	94.701120 
1135.156553  	94.696163 
1136.593460  	94.660729 
1138.030367  	94.616687 
1139.467274  	94.630155 
1140.904181  	94.628435 
1142.341088  	94.618550 
1143.777995  	94.615578 
1145.214902  	94.542086 
1146.651809  	94.504492 
1148.088716  	94.523847 
1149.525623  	94.505949 
1150.962530  	94.493070 
1152.399437  	94.453993 
1153.836344  	94.418129 
1155.273251  	94.459184 
1156.710158  	94.475840 
1158.147065  	94.481334 
1159.583972  	94.499975 
1161.020879  	94.476915 
1162.457786  	94.479787 
1163.894693  	94.461838 
1165.331600  	94.390563 
1166.768507  	94.381548 
1168.205414  	94.393314 
1169.642322  	94.384203 
1171.079229  	94.371304 
1172.516136  	94.328199 
1173.953043  	94.308407 
1175.389950  	94.300445 
1176.826857  	94.273088 
1178.263764  	94.281975 
1179.700671  	94.298758 
1181.137578  	94.301777 
1182.574485  	94.279861 
1184.011392  	94.222579 
1185.448299  	94.209110 
1186.885206  	94.212653 
1188.322113  	94.202215 
1189.759020  	94.224899 
1191.195927  	94.223034 
1192.632834  	94.218988 
1194.069741  	94.243869 
1195.506648  	94.222083 
1196.943555  	94.201189 
1198.380462  	94.192622 
1199.817369  	94.169720 
1201.254276  	94.185873 
1202.691183  	94.185029 
1204.128090  	94.159248 
1205.564997  	94.155996 
1207.001904  	94.138040 
1208.438811  	94.139280 
1209.875718  	94.129319 
1211.312625  	94.079704 
1212.749532  	94.096344 
1214.186439  	94.124997 
1215.623346  	94.115561 
1217.060253  	94.118294 
1218.497160  	94.083599 
1219.934068  	94.068542 
1221.370975  	94.110827 
1222.807882  	94.102710 
1224.244789  	94.066562 
1225.681696  	94.042574 
1227.118603  	94.031597 
1228.555510  	94.048041 
1229.992417  	94.041962 
1231.429324  	94.029068 
1232.866231  	94.020419 
1234.303138  	93.991251 
1235.740045  	93.996668 
1237.176952  	93.995916 
1238.613859  	93.957870 
1240.050766  	93.949592 
1241.487673  	93.938598 
1242.924580  	93.923749 
1244.361487  	93.925520 
1245.798394  	93.909636 
1247.235301  	93.905212 
1248.672208  	93.888695 
1250.109115  	93.852671 
1251.546022  	93.849986 
1252.982929  	93.832518 
1254.419836  	93.811866 
1255.856743  	93.818768 
1257.293650  	93.799707 
1258.730557  	93.772070 
1260.167464  	93.743724 
1261.604371  	93.744010 
1263.041278  	93.794622 
1264.478185  	93.784565 
1265.915092  	93.741569 
1267.351999  	93.737673 
1268.788907  	93.713850 
1270.225814  	93.701093 
1271.662721  	93.704044 
1273.099628  	93.703465 
1274.536535  	93.733165 
1275.973442  	93.728811 
1277.410349  	93.719435 
1278.847256  	93.737858 
1280.284163  	93.701747 
1281.721070  	93.694277 
1283.157977  	93.743837 
1284.594884  	93.761121 
1286.031791  	93.747408 
1287.468698  	93.678604 
1288.905605  	93.651435 
1290.342512  	93.722993 
1291.779419  	93.747759 
1293.216326  	93.771832 
1294.653233  	93.803176 
1296.090140  	93.768278 
1297.527047  	93.792682 
1298.963954  	93.825764 
1300.400861  	93.820484 
1301.837768  	93.867171 
1303.274675  	93.907295 
1304.711582  	93.899441 
1306.148489  	93.911316 
1307.585396  	93.890951 
1309.022303  	93.897458 
1310.459210  	93.909873 
1311.896117  	93.864830 
1313.333024  	93.843380 
1314.769931  	93.863177 
1316.206838  	93.867569 
1317.643745  	93.849990 
1319.080653  	93.801003 
1320.517560  	93.820689 
1321.954467  	93.870903 
1323.391374  	93.869246 
1324.828281  	93.885531 
1326.265188  	93.886290 
1327.702095  	93.880271 
1329.139002  	93.892095 
1330.575909  	93.855551 
1332.012816  	93.866823 
1333.449723  	93.894722 
1334.886630  	93.812248 
1336.323537  	93.733202 
1337.760444  	93.580558 
1339.197351  	93.326953 
1340.634258  	93.362427 
1342.071165  	93.593322 
1343.508072  	93.687785 
1344.944979  	93.680606 
1346.381886  	93.666387 
1347.818793  	93.659697 
1349.255700  	93.635960 
1350.692607  	93.621088 
1352.129514  	93.640840 
1353.566421  	93.594378 
1355.003328  	93.522954 
1356.440235  	93.505031 
1357.877142  	93.501204 
1359.314049  	93.478310 
1360.750956  	93.390185 
1362.187863  	93.223017 
1363.624770  	93.165881 
1365.061677  	93.249398 
1366.498584  	93.265978 
1367.935491  	93.178613 
1369.372399  	93.095621 
1370.809306  	93.120781 
1372.246213  	93.079609 
1373.683120  	92.888171 
1375.120027  	92.782043 
1376.556934  	92.792084 
1377.993841  	92.717358 
1379.430748  	92.646194 
1380.867655  	92.630510 
1382.304562  	92.664827 
1383.741469  	92.679707 
1385.178376  	92.614201 
1386.615283  	92.503923 
1388.052190  	92.455094 
1389.489097  	92.479044 
1390.926004  	92.510155 
1392.362911  	92.557959 
1393.799818  	92.583396 
1395.236725  	92.529413 
1396.673632  	92.493487 
1398.110539  	92.497557 
1399.547446  	92.505890 
1400.984353  	92.611651 
1402.421260  	92.701027 
1403.858167  	92.685719 
1405.295074  	92.664101 
1406.731981  	92.768264 
1408.168888  	92.856813 
1409.605795  	92.867420 
1411.042702  	92.870713 
1412.479609  	92.956137 
1413.916516  	93.078539 
1415.353423  	93.062047 
1416.790330  	92.986201 
1418.227238  	92.988934 
1419.664145  	93.031465 
1421.101052  	93.077655 
1422.537959  	93.051857 
1423.974866  	93.016466 
1425.411773  	93.099210 
1426.848680  	93.160192 
1428.285587  	93.169384 
1429.722494  	93.197346 
1431.159401  	93.217726 
1432.596308  	93.230811 
1434.033215  	93.227269 
1435.470122  	93.197681 
1436.907029  	93.120516 
1438.343936  	93.123358 
1439.780843  	93.135521 
1441.217750  	93.180421 
1442.654657  	93.178791 
1444.091564  	93.177356 
1445.528471  	93.212373 
1446.965378  	93.240588 
1448.402285  	93.358582 
1449.839192  	93.433223 
1451.276099  	93.370529 
1452.713006  	93.286580 
1454.149913  	93.266997 
1455.586820  	93.439605 
1457.023727  	93.293734 
1458.460634  	92.821450 
1459.897541  	92.845919 
1461.334448  	93.034568 
1462.771355  	93.125323 
1464.208262  	93.193751 
1465.645169  	93.251698 
1467.082076  	93.260483 
1468.518984  	93.276725 
1469.955891  	93.280988 
1471.392798  	93.210423 
1472.829705  	92.970559 
1474.266612  	92.903099 
1475.703519  	92.780606 
1477.140426  	92.706922 
1478.577333  	92.822017 
1480.014240  	92.835342 
1481.451147  	92.780458 
1482.888054  	92.942389 
1484.324961  	93.073383 
1485.761868  	93.009325 
1487.198775  	92.873246 
1488.635682  	92.629337 
1490.072589  	92.430358 
1491.509496  	92.548559 
1492.946403  	92.608952 
1494.383310  	92.636210 
1495.820217  	92.613548 
1497.257124  	92.431064 
1498.694031  	92.397675 
1500.130938  	92.415937 
1501.567845  	92.327591 
1503.004752  	92.311054 
1504.441659  	92.451975 
1505.878566  	92.468002 
1507.315473  	91.468673 
1508.752380  	91.275966 
1510.189287  	91.534844 
1511.626194  	91.627004 
1513.063101  	91.662901 
1514.500008  	91.673807 
1515.936915  	91.637174 
1517.373822  	91.708917 
1518.810730  	91.736788 
1520.247637  	91.549479 
1521.684544  	91.237833 
