##TITLE=No Description
##DATA TYPE=INFRARED SPECTRUM
##XUNITS=1/CM
##YUNITS=%T
399.460154  	29.308177 
400.897061  	29.602519 
402.333968  	31.096573 
403.770875  	30.671295 
405.207782  	30.029940 
406.644689  	29.455431 
408.081596  	28.669542 
409.518503  	29.646120 
410.955410  	29.670466 
412.392317  	28.910954 
413.829224  	30.214506 
415.266131  	30.676299 
416.703038  	29.909037 
418.139945  	29.025165 
419.576852  	28.503521 
421.013759  	29.459382 
422.450666  	29.475522 
423.887574  	29.227918 
425.324481  	29.542574 
426.761388  	29.135161 
428.198295  	29.877461 
429.635202  	30.731820 
431.072109  	29.893864 
432.509016  	30.091254 
433.945923  	30.613392 
435.382830  	30.232424 
436.819737  	30.170277 
438.256644  	29.733103 
439.693551  	29.779864 
441.130458  	30.579039 
442.567365  	30.407899 
444.004272  	30.683327 
445.441179  	30.989186 
446.878086  	30.597566 
448.314993  	30.701236 
449.751900  	30.393583 
451.188807  	30.089081 
452.625714  	30.761383 
454.062621  	30.963352 
455.499528  	30.979639 
456.936435  	30.734386 
458.373342  	30.410848 
459.810249  	30.775668 
461.247156  	30.568991 
462.684063  	30.498941 
464.120970  	30.952996 
465.557877  	30.697366 
466.994784  	30.759856 
468.431691  	30.984239 
469.868598  	30.599999 
471.305505  	30.851285 
472.742413  	30.965690 
474.179320  	30.592562 
475.616227  	30.761900 
477.053134  	30.731092 
478.490041  	30.590390 
479.926948  	30.643252 
481.363855  	30.568960 
482.800762  	30.746845 
484.237669  	30.814837 
485.674576  	30.862782 
487.111483  	31.231948 
488.548390  	31.337865 
489.985297  	31.228365 
491.422204  	31.168231 
492.859111  	31.196415 
494.296018  	31.313055 
495.732925  	31.205540 
497.169832  	31.403530 
498.606739  	31.853273 
500.043646  	31.683372 
501.480553  	31.353869 
502.917460  	31.259410 
504.354367  	31.314329 
505.791274  	31.666220 
507.228181  	31.894833 
508.665088  	31.980926 
510.101995  	32.062308 
511.538902  	31.765357 
512.975809  	31.579567 
514.412716  	31.698050 
515.849623  	31.845538 
517.286530  	32.120559 
518.723437  	32.092199 
520.160344  	31.933992 
521.597251  	32.016284 
523.034159  	32.062079 
524.471066  	32.240285 
525.907973  	32.449612 
527.344880  	32.411101 
528.781787  	32.438651 
530.218694  	32.378196 
531.655601  	32.398300 
533.092508  	32.646760 
534.529415  	32.621466 
535.966322  	32.629164 
537.403229  	32.900773 
538.840136  	33.005660 
540.277043  	33.071019 
541.713950  	33.154531 
543.150857  	33.216556 
544.587764  	33.313880 
546.024671  	33.317275 
547.461578  	33.409051 
548.898485  	33.494114 
550.335392  	33.464400 
551.772299  	33.674445 
553.209206  	33.887551 
554.646113  	33.930946 
556.083020  	34.006040 
557.519927  	33.969437 
558.956834  	34.021090 
560.393741  	34.227496 
561.830648  	34.247153 
563.267555  	34.267256 
564.704462  	34.379690 
566.141369  	34.500326 
567.578276  	34.686681 
569.015183  	34.753567 
570.452090  	34.771542 
571.888997  	34.857644 
573.325905  	34.878690 
574.762812  	34.957838 
576.199719  	35.142333 
577.636626  	35.329788 
579.073533  	35.503662 
580.510440  	35.588600 
581.947347  	35.628543 
583.384254  	35.630207 
584.821161  	35.630045 
586.258068  	35.843295 
587.694975  	36.085661 
589.131882  	36.191757 
590.568789  	36.317034 
592.005696  	36.418688 
593.442603  	36.498649 
594.879510  	36.581996 
596.316417  	36.661535 
597.753324  	36.858317 
599.190231  	37.009311 
600.627138  	37.035324 
602.064045  	37.151159 
603.500952  	37.280141 
604.937859  	37.407380 
606.374766  	37.568687 
607.811673  	37.702663 
609.248580  	37.837795 
610.685487  	37.960173 
612.122394  	38.068444 
613.559301  	38.266559 
614.996208  	38.394426 
616.433115  	38.456549 
617.870022  	38.563939 
619.306929  	38.695965 
620.743836  	38.874834 
622.180744  	39.013221 
623.617651  	39.124843 
625.054558  	39.319805 
626.491465  	39.459368 
627.928372  	39.572142 
629.365279  	39.739355 
630.802186  	39.858807 
632.239093  	39.981877 
633.676000  	40.085201 
635.112907  	40.179833 
636.549814  	40.390535 
637.986721  	40.550069 
639.423628  	40.661010 
640.860535  	40.841165 
642.297442  	40.972834 
643.734349  	41.155799 
645.171256  	41.370671 
646.608163  	41.478888 
648.045070  	41.612493 
649.481977  	41.759768 
650.918884  	41.888767 
652.355791  	42.045032 
653.792698  	42.188033 
655.229605  	42.361247 
656.666512  	42.529802 
658.103419  	42.626717 
659.540326  	42.822892 
660.977233  	43.075225 
662.414140  	43.268139 
663.851047  	43.454147 
665.287954  	43.515939 
666.724861  	43.630427 
668.161768  	43.904367 
669.598675  	44.174078 
671.035582  	44.309055 
672.472490  	44.485310 
673.909397  	44.633522 
675.346304  	44.803645 
676.783211  	45.013273 
678.220118  	45.143463 
679.657025  	45.284711 
681.093932  	45.484825 
682.530839  	45.707810 
683.967746  	45.947304 
685.404653  	46.138565 
686.841560  	46.286985 
688.278467  	46.468261 
689.715374  	46.659258 
691.152281  	46.844564 
692.589188  	47.044169 
694.026095  	47.263737 
695.463002  	47.486168 
696.899909  	47.692270 
698.336816  	47.890084 
699.773723  	48.097114 
701.210630  	48.289265 
702.647537  	48.494198 
704.084444  	48.741045 
705.521351  	48.950314 
706.958258  	49.128001 
708.395165  	49.326877 
709.832072  	49.525459 
711.268979  	49.716894 
712.705886  	49.911774 
714.142793  	50.102599 
715.579700  	50.327491 
717.016607  	50.556171 
718.453514  	50.740980 
719.890421  	50.946689 
721.327328  	51.186467 
722.764236  	51.416464 
724.201143  	51.638614 
725.638050  	51.834590 
727.074957  	52.016937 
728.511864  	52.211244 
729.948771  	52.420777 
731.385678  	52.675288 
732.822585  	52.911233 
734.259492  	53.083820 
735.696399  	53.289037 
737.133306  	53.525371 
738.570213  	53.752730 
740.007120  	53.985176 
741.444027  	54.201972 
742.880934  	54.459461 
744.317841  	54.733043 
745.754748  	54.935504 
747.191655  	55.188636 
748.628562  	55.477705 
750.065469  	55.657824 
751.502376  	55.837556 
752.939283  	56.067085 
754.376190  	56.249398 
755.813097  	56.437165 
757.250004  	56.706362 
758.686911  	56.996977 
760.123818  	57.215546 
761.560725  	57.416839 
762.997632  	57.691975 
764.434539  	57.963505 
765.871446  	58.205300 
767.308353  	58.443476 
768.745260  	58.629869 
770.182167  	58.846987 
771.619075  	59.119462 
773.055982  	59.348441 
774.492889  	59.592295 
775.929796  	59.843588 
777.366703  	60.061820 
778.803610  	60.328980 
780.240517  	60.559196 
781.677424  	60.729149 
783.114331  	60.986990 
784.551238  	61.270037 
785.988145  	61.541426 
787.425052  	61.853511 
788.861959  	62.102599 
790.298866  	62.299571 
791.735773  	62.518975 
793.172680  	62.721650 
794.609587  	62.972738 
796.046494  	63.270239 
797.483401  	63.487106 
798.920308  	63.688636 
800.357215  	63.956243 
801.794122  	64.230741 
803.231029  	64.504896 
804.667936  	64.775463 
806.104843  	65.023620 
807.541750  	65.296337 
808.978657  	65.572474 
810.415564  	65.799191 
811.852471  	66.021866 
813.289378  	66.263971 
814.726285  	66.505672 
816.163192  	66.759893 
817.600099  	67.030520 
819.037006  	67.312963 
820.473913  	67.589991 
821.910821  	67.832751 
823.347728  	68.073205 
824.784635  	68.342602 
826.221542  	68.601890 
827.658449  	68.830956 
829.095356  	69.066339 
830.532263  	69.317537 
831.969170  	69.562178 
833.406077  	69.813815 
834.842984  	70.062879 
836.279891  	70.284278 
837.716798  	70.545688 
839.153705  	70.849782 
840.590612  	71.096071 
842.027519  	71.326241 
843.464426  	71.618137 
844.901333  	71.910235 
846.338240  	72.136282 
847.775147  	72.321592 
849.212054  	72.563375 
850.648961  	72.881138 
852.085868  	73.155821 
853.522775  	73.365676 
854.959682  	73.619464 
856.396589  	73.927126 
857.833496  	74.183950 
859.270403  	74.384456 
860.707310  	74.637515 
862.144217  	74.903843 
863.581124  	75.098364 
865.018031  	75.308628 
866.454938  	75.565906 
867.891845  	75.822661 
869.328752  	76.067907 
870.765660  	76.267946 
872.202567  	76.485444 
873.639474  	76.743655 
875.076381  	76.945245 
876.513288  	77.155951 
877.950195  	77.408446 
879.387102  	77.610332 
880.824009  	77.808860 
882.260916  	78.038711 
883.697823  	78.281523 
885.134730  	78.528849 
886.571637  	78.737687 
888.008544  	78.959997 
889.445451  	79.191372 
890.882358  	79.364446 
892.319265  	79.555039 
893.756172  	79.750772 
895.193079  	79.916884 
896.629986  	80.130998 
898.066893  	80.344854 
899.503800  	80.518156 
900.940707  	80.696141 
902.377614  	80.888165 
903.814521  	81.102607 
905.251428  	81.268850 
906.688335  	81.389025 
908.125242  	81.560985 
909.562149  	81.731355 
910.999056  	81.895883 
912.435963  	82.096332 
913.872870  	82.267037 
915.309777  	82.436474 
916.746684  	82.625214 
918.183591  	82.810809 
919.620498  	83.003158 
921.057406  	83.134392 
922.494313  	83.261038 
923.931220  	83.452496 
925.368127  	83.594804 
926.805034  	83.720712 
928.241941  	83.890233 
929.678848  	84.041311 
931.115755  	84.178736 
932.552662  	84.279319 
933.989569  	84.385138 
935.426476  	84.558055 
936.863383  	84.686609 
938.300290  	84.773115 
939.737197  	84.883210 
941.174104  	84.989370 
942.611011  	85.119408 
944.047918  	85.237791 
945.484825  	85.338726 
946.921732  	85.491081 
948.358639  	85.616841 
949.795546  	85.699821 
951.232453  	85.792232 
952.669360  	85.874582 
954.106267  	85.989127 
955.543174  	86.105887 
956.980081  	86.178641 
958.416988  	86.275165 
959.853895  	86.381198 
961.290802  	86.483548 
962.727709  	86.586007 
964.164616  	86.649397 
965.601523  	86.729010 
967.038430  	86.830709 
968.475337  	86.919055 
969.912244  	87.012984 
971.349152  	87.072850 
972.786059  	87.146526 
974.222966  	87.260928 
975.659873  	87.306986 
977.096780  	87.340570 
978.533687  	87.415232 
979.970594  	87.466203 
981.407501  	87.527142 
982.844408  	87.592736 
984.281315  	87.645801 
985.718222  	87.723296 
987.155129  	87.787334 
988.592036  	87.841110 
990.028943  	87.893231 
991.465850  	87.921188 
992.902757  	87.971849 
994.339664  	88.029377 
995.776571  	88.065133 
997.213478  	88.097650 
998.650385  	88.109500 
1000.087292  	88.144025 
1001.524199  	88.190724 
1002.961106  	88.187511 
1004.398013  	88.225397 
1005.834920  	88.313203 
1007.271827  	88.350806 
1008.708734  	88.379424 
1010.145641  	88.432748 
1011.582548  	88.463765 
1013.019455  	88.471694 
1014.456362  	88.499340 
1015.893269  	88.556949 
1017.330176  	88.603721 
1018.767083  	88.650346 
1020.203991  	88.696117 
1021.640898  	88.700237 
1023.077805  	88.739262 
1024.514712  	88.808988 
1025.951619  	88.792680 
1027.388526  	88.771438 
1028.825433  	88.812830 
1030.262340  	88.810720 
1031.699247  	88.762579 
1033.136154  	88.737063 
1034.573061  	88.723601 
1036.009968  	88.721267 
1037.446875  	88.759081 
1038.883782  	88.802100 
1040.320689  	88.812742 
1041.757596  	88.847094 
1043.194503  	88.904487 
1044.631410  	88.931200 
1046.068317  	88.978869 
1047.505224  	89.041792 
1048.942131  	89.062748 
1050.379038  	89.089956 
1051.815945  	89.140567 
1053.252852  	89.199332 
1054.689759  	89.250840 
1056.126666  	89.266858 
1057.563573  	89.299483 
1059.000480  	89.346237 
1060.437387  	89.381044 
1061.874294  	89.445070 
1063.311201  	89.458942 
1064.748108  	89.422533 
1066.185015  	89.461532 
1067.621922  	89.514562 
1069.058829  	89.526928 
1070.495737  	89.538603 
1071.932644  	89.544365 
1073.369551  	89.565106 
1074.806458  	89.588690 
1076.243365  	89.616596 
1077.680272  	89.649346 
1079.117179  	89.613501 
1080.554086  	89.591286 
1081.990993  	89.622521 
1083.427900  	89.597393 
1084.864807  	89.594267 
1086.301714  	89.631388 
1087.738621  	89.609183 
1089.175528  	89.597006 
1090.612435  	89.609293 
1092.049342  	89.617867 
1093.486249  	89.645296 
1094.923156  	89.635599 
1096.360063  	89.620266 
1097.796970  	89.655073 
1099.233877  	89.692078 
1100.670784  	89.714244 
1102.107691  	89.706973 
1103.544598  	89.708664 
1104.981505  	89.751340 
1106.418412  	89.760952 
1107.855319  	89.773613 
1109.292226  	89.818489 
1110.729133  	89.820514 
1112.166040  	89.814437 
1113.602947  	89.819763 
1115.039854  	89.830108 
1116.476761  	89.882584 
1117.913668  	89.910021 
1119.350575  	89.891846 
1120.787483  	89.904134 
1122.224390  	89.946574 
1123.661297  	89.982694 
1125.098204  	89.988324 
1126.535111  	89.985168 
1127.972018  	89.986197 
1129.408925  	89.966459 
1130.845832  	89.973736 
1132.282739  	89.996055 
1133.719646  	89.985610 
1135.156553  	89.991315 
1136.593460  	89.984873 
1138.030367  	89.967289 
1139.467274  	89.998023 
1140.904181  	90.007065 
1142.341088  	90.006361 
1143.777995  	90.028372 
1145.214902  	89.999200 
1146.651809  	89.975969 
1148.088716  	89.986685 
1149.525623  	89.974558 
1150.962530  	89.970112 
1152.399437  	89.958630 
1153.836344  	89.954420 
1155.273251  	89.984423 
1156.710158  	89.967003 
1158.147065  	89.940048 
1159.583972  	89.957104 
1161.020879  	89.961113 
1162.457786  	89.967992 
1163.894693  	89.968645 
1165.331600  	89.944730 
1166.768507  	89.939340 
1168.205414  	89.932077 
1169.642322  	89.933592 
1171.079229  	89.952420 
1172.516136  	89.934028 
1173.953043  	89.916105 
1175.389950  	89.922592 
1176.826857  	89.919893 
1178.263764  	89.919736 
1179.700671  	89.914579 
1181.137578  	89.909721 
1182.574485  	89.909238 
1184.011392  	89.885768 
1185.448299  	89.869532 
1186.885206  	89.874815 
1188.322113  	89.879927 
1189.759020  	89.879396 
1191.195927  	89.872888 
1192.632834  	89.895384 
1194.069741  	89.914202 
1195.506648  	89.883885 
1196.943555  	89.880883 
1198.380462  	89.887567 
1199.817369  	89.847080 
1201.254276  	89.835292 
1202.691183  	89.850708 
1204.128090  	89.842028 
1205.564997  	89.831059 
1207.001904  	89.830527 
1208.438811  	89.851320 
1209.875718  	89.865517 
1211.312625  	89.844880 
1212.749532  	89.835195 
1214.186439  	89.839205 
1215.623346  	89.836641 
1217.060253  	89.831886 
1218.497160  	89.825414 
1219.934068  	89.847604 
1221.370975  	89.871180 
1222.807882  	89.844501 
1224.244789  	89.813972 
1225.681696  	89.817069 
1227.118603  	89.836910 
1228.555510  	89.836393 
1229.992417  	89.806863 
1231.429324  	89.803954 
1232.866231  	89.813144 
1234.303138  	89.802475 
1235.740045  	89.813078 
1237.176952  	89.821185 
1238.613859  	89.808139 
1240.050766  	89.804036 
1241.487673  	89.793022 
1242.924580  	89.778650 
1244.361487  	89.758323 
1245.798394  	89.739147 
1247.235301  	89.761905 
1248.672208  	89.767051 
1250.109115  	89.726054 
1251.546022  	89.707596 
1252.982929  	89.702933 
1254.419836  	89.689117 
1255.856743  	89.674418 
1257.293650  	89.665151 
1258.730557  	89.674406 
1260.167464  	89.678979 
1261.604371  	89.692697 
1263.041278  	89.719554 
1264.478185  	89.700336 
1265.915092  	89.676333 
1267.351999  	89.674891 
1268.788907  	89.652850 
1270.225814  	89.640888 
1271.662721  	89.628031 
1273.099628  	89.606180 
1274.536535  	89.618779 
1275.973442  	89.626106 
1277.410349  	89.622584 
1278.847256  	89.615731 
1280.284163  	89.583504 
1281.721070  	89.591110 
1283.157977  	89.629311 
1284.594884  	89.641533 
1286.031791  	89.653650 
1287.468698  	89.645486 
1288.905605  	89.633927 
1290.342512  	89.653676 
1291.779419  	89.662313 
1293.216326  	89.676035 
1294.653233  	89.683334 
1296.090140  	89.666482 
1297.527047  	89.683614 
1298.963954  	89.706755 
1300.400861  	89.720402 
1301.837768  	89.722421 
1303.274675  	89.735787 
1304.711582  	89.744610 
1306.148489  	89.756782 
1307.585396  	89.739835 
1309.022303  	89.758731 
1310.459210  	89.769532 
1311.896117  	89.763621 
1313.333024  	89.772178 
1314.769931  	89.758241 
1316.206838  	89.762100 
1317.643745  	89.772225 
1319.080653  	89.764036 
1320.517560  	89.752655 
1321.954467  	89.752799 
1323.391374  	89.740708 
1324.828281  	89.751912 
1326.265188  	89.749424 
1327.702095  	89.724336 
1329.139002  	89.740501 
1330.575909  	89.743081 
1332.012816  	89.719322 
1333.449723  	89.705918 
1334.886630  	89.697377 
1336.323537  	89.710838 
1337.760444  	89.686692 
1339.197351  	89.641599 
1340.634258  	89.635177 
1342.071165  	89.651221 
1343.508072  	89.651998 
1344.944979  	89.637795 
1346.381886  	89.612306 
1347.818793  	89.611569 
1349.255700  	89.599667 
1350.692607  	89.562538 
1352.129514  	89.545966 
1353.566421  	89.516320 
1355.003328  	89.500188 
1356.440235  	89.493127 
1357.877142  	89.472398 
1359.314049  	89.460257 
1360.750956  	89.444537 
1362.187863  	89.377874 
1363.624770  	89.341904 
1365.061677  	89.339374 
1366.498584  	89.342831 
1367.935491  	89.319742 
1369.372399  	89.243574 
1370.809306  	89.205038 
1372.246213  	89.205042 
1373.683120  	89.132505 
1375.120027  	89.058180 
1376.556934  	89.005244 
1377.993841  	88.959572 
1379.430748  	88.951618 
1380.867655  	88.933541 
1382.304562  	88.891164 
1383.741469  	88.880507 
1385.178376  	88.879768 
1386.615283  	88.825741 
1388.052190  	88.772315 
1389.489097  	88.779082 
1390.926004  	88.817897 
1392.362911  	88.844193 
1393.799818  	88.845940 
1395.236725  	88.853744 
1396.673632  	88.880057 
1398.110539  	88.922278 
1399.547446  	88.934708 
1400.984353  	88.955454 
1402.421260  	89.006401 
1403.858167  	89.045208 
1405.295074  	89.064778 
1406.731981  	89.085685 
1408.168888  	89.110737 
1409.605795  	89.136827 
1411.042702  	89.153234 
1412.479609  	89.161524 
1413.916516  	89.207727 
1415.353423  	89.242307 
1416.790330  	89.266954 
1418.227238  	89.255045 
1419.664145  	89.233808 
1421.101052  	89.319195 
1422.537959  	89.358753 
1423.974866  	89.332924 
1425.411773  	89.385810 
1426.848680  	89.437536 
1428.285587  	89.443873 
1429.722494  	89.442763 
1431.159401  	89.407371 
1432.596308  	89.417296 
1434.033215  	89.472841 
1435.470122  	89.496107 
1436.907029  	89.470866 
1438.343936  	89.399583 
1439.780843  	89.378404 
1441.217750  	89.424650 
1442.654657  	89.442906 
1444.091564  	89.436614 
1445.528471  	89.432249 
1446.965378  	89.409504 
1448.402285  	89.394849 
1449.839192  	89.375243 
1451.276099  	89.379371 
1452.713006  	89.414434 
1454.149913  	89.410872 
1455.586820  	89.403021 
1457.023727  	89.381100 
1458.460634  	89.301493 
1459.897541  	89.312212 
1461.334448  	89.341716 
1462.771355  	89.343437 
1464.208262  	89.342181 
1465.645169  	89.291717 
1467.082076  	89.260119 
1468.518984  	89.263836 
1469.955891  	89.258879 
1471.392798  	89.236842 
1472.829705  	89.168171 
1474.266612  	89.153827 
1475.703519  	89.167570 
1477.140426  	89.143552 
1478.577333  	89.127867 
1480.014240  	89.104187 
1481.451147  	89.075088 
1482.888054  	89.107108 
1484.324961  	89.103586 
1485.761868  	89.027130 
1487.198775  	88.959031 
1488.635682  	88.912794 
1490.072589  	88.877928 
1491.509496  	88.858547 
1492.946403  	88.836556 
1494.383310  	88.836957 
1495.820217  	88.812353 
1497.257124  	88.715798 
1498.694031  	88.638790 
1500.130938  	88.559282 
1501.567845  	88.548165 
1503.004752  	88.554965 
1504.441659  	88.506586 
1505.878566  	88.478879 
1507.315473  	88.368233 
1508.752380  	88.188878 
1510.189287  	88.183821 
1511.626194  	88.179148 
1513.063101  	88.201712 
1514.500008  	88.196995 
1515.936915  	88.058491 
1517.373822  	87.952494 
1518.810730  	87.998309 
1520.247637  	87.915936 
1521.684544  	87.739469 
