##TITLE=No Description
##DATA TYPE=INFRARED SPECTRUM
##XUNITS=1/CM
##YUNITS=%T
399.460154  	33.417409 
400.897061  	31.339317 
402.333968  	31.031665 
403.770875  	30.841445 
405.207782  	31.096880 
406.644689  	32.249404 
408.081596  	32.271885 
409.518503  	31.832783 
410.955410  	31.605235 
412.392317  	31.086204 
413.829224  	31.251617 
415.266131  	31.599405 
416.703038  	31.676908 
418.139945  	32.251849 
419.576852  	31.893893 
421.013759  	31.142770 
422.450666  	30.839267 
423.887574  	30.550344 
425.324481  	30.564350 
426.761388  	30.478550 
428.198295  	30.535579 
429.635202  	31.160372 
431.072109  	31.678101 
432.509016  	31.699921 
433.945923  	31.282798 
435.382830  	31.205655 
436.819737  	31.484413 
438.256644  	30.955813 
439.693551  	30.502243 
441.130458  	30.736912 
442.567365  	30.875477 
444.004272  	31.466463 
445.441179  	31.802703 
446.878086  	31.233823 
448.314993  	31.258086 
449.751900  	31.582047 
451.188807  	31.535329 
452.625714  	31.703422 
454.062621  	31.720359 
455.499528  	31.686777 
456.936435  	32.187829 
458.373342  	32.662308 
459.810249  	32.400669 
461.247156  	32.040365 
462.684063  	31.764347 
464.120970  	31.384852 
465.557877  	31.159998 
466.994784  	31.689040 
468.431691  	32.058864 
469.868598  	31.915512 
471.305505  	31.885034 
472.742413  	31.455927 
474.179320  	30.979408 
475.616227  	30.957935 
477.053134  	31.180855 
478.490041  	31.754844 
479.926948  	31.867933 
481.363855  	31.621785 
482.800762  	31.976896 
484.237669  	32.057037 
485.674576  	31.744742 
487.111483  	31.964225 
488.548390  	32.221011 
489.985297  	32.156158 
491.422204  	31.952736 
492.859111  	31.989025 
494.296018  	32.327361 
495.732925  	32.228042 
497.169832  	31.943549 
498.606739  	32.053653 
500.043646  	32.095001 
501.480553  	32.154627 
502.917460  	32.139104 
504.354367  	31.954135 
505.791274  	32.179859 
507.228181  	32.389015 
508.665088  	32.285417 
510.101995  	32.331209 
511.538902  	32.344384 
512.975809  	32.480081 
514.412716  	32.668963 
515.849623  	32.515706 
517.286530  	32.627504 
518.723437  	32.969008 
520.160344  	32.848563 
521.597251  	32.707619 
523.034159  	32.748817 
524.471066  	32.877307 
525.907973  	33.116629 
527.344880  	33.173527 
528.781787  	33.107502 
530.218694  	33.183944 
531.655601  	33.368962 
533.092508  	33.473129 
534.529415  	33.366366 
535.966322  	33.334310 
537.403229  	33.531957 
538.840136  	33.596585 
540.277043  	33.474670 
541.713950  	33.458874 
543.150857  	33.666490 
544.587764  	33.834673 
546.024671  	33.837415 
547.461578  	33.998089 
548.898485  	34.202790 
550.335392  	34.209883 
551.772299  	34.270239 
553.209206  	34.374353 
554.646113  	34.446872 
556.083020  	34.523809 
557.519927  	34.506189 
558.956834  	34.619005 
560.393741  	34.832832 
561.830648  	34.767107 
563.267555  	34.672545 
564.704462  	34.838946 
566.141369  	35.072753 
567.578276  	35.228911 
569.015183  	35.292493 
570.452090  	35.415705 
571.888997  	35.567061 
573.325905  	35.590108 
574.762812  	35.621406 
576.199719  	35.670498 
577.636626  	35.706060 
579.073533  	35.870214 
580.510440  	36.034666 
581.947347  	36.094155 
583.384254  	36.174597 
584.821161  	36.298885 
586.258068  	36.446233 
587.694975  	36.540038 
589.131882  	36.567098 
590.568789  	36.691204 
592.005696  	36.895354 
593.442603  	37.041394 
594.879510  	37.143755 
596.316417  	37.242804 
597.753324  	37.313904 
599.190231  	37.347006 
600.627138  	37.494702 
602.064045  	37.773610 
603.500952  	37.939169 
604.937859  	38.003800 
606.374766  	38.073799 
607.811673  	38.109993 
609.248580  	38.174570 
610.685487  	38.274965 
612.122394  	38.379586 
613.559301  	38.541615 
614.996208  	38.718065 
616.433115  	38.902126 
617.870022  	39.079535 
619.306929  	39.193063 
620.743836  	39.341698 
622.180744  	39.520992 
623.617651  	39.659642 
625.054558  	39.803519 
626.491465  	39.917131 
627.928372  	40.046608 
629.365279  	40.233390 
630.802186  	40.336796 
632.239093  	40.432978 
633.676000  	40.622059 
635.112907  	40.798487 
636.549814  	40.935258 
637.986721  	41.061550 
639.423628  	41.177732 
640.860535  	41.296236 
642.297442  	41.394269 
643.734349  	41.559216 
645.171256  	41.790576 
646.608163  	41.958500 
648.045070  	42.116804 
649.481977  	42.288715 
650.918884  	42.438103 
652.355791  	42.594053 
653.792698  	42.757592 
655.229605  	42.926793 
656.666512  	43.096128 
658.103419  	43.268664 
659.540326  	43.447302 
660.977233  	43.591283 
662.414140  	43.716874 
663.851047  	43.873549 
665.287954  	43.985417 
666.724861  	44.121110 
668.161768  	44.376304 
669.598675  	44.611389 
671.035582  	44.767177 
672.472490  	44.966444 
673.909397  	45.138854 
675.346304  	45.282261 
676.783211  	45.452197 
678.220118  	45.630299 
679.657025  	45.816023 
681.093932  	46.033941 
682.530839  	46.243919 
683.967746  	46.430007 
685.404653  	46.616570 
686.841560  	46.794562 
688.278467  	46.984388 
689.715374  	47.200057 
691.152281  	47.393462 
692.589188  	47.554345 
694.026095  	47.751732 
695.463002  	47.965661 
696.899909  	48.121240 
698.336816  	48.320439 
699.773723  	48.578513 
701.210630  	48.787438 
702.647537  	48.958636 
704.084444  	49.167530 
705.521351  	49.387493 
706.958258  	49.558486 
708.395165  	49.731883 
709.832072  	49.969262 
711.268979  	50.192500 
712.705886  	50.354764 
714.142793  	50.540216 
715.579700  	50.767358 
717.016607  	50.986111 
718.453514  	51.193034 
719.890421  	51.396891 
721.327328  	51.600465 
722.764236  	51.801306 
724.201143  	52.000244 
725.638050  	52.220267 
727.074957  	52.434195 
728.511864  	52.655419 
729.948771  	52.873226 
731.385678  	53.077674 
732.822585  	53.292785 
734.259492  	53.475443 
735.696399  	53.764619 
737.133306  	54.033682 
738.570213  	54.227003 
740.007120  	54.456713 
741.444027  	54.700584 
742.880934  	54.892719 
744.317841  	55.103592 
745.754748  	55.344452 
747.191655  	55.570243 
748.628562  	55.813356 
750.065469  	56.082579 
751.502376  	56.326180 
752.939283  	56.500890 
754.376190  	56.630918 
755.813097  	56.842803 
757.250004  	57.140600 
758.686911  	57.398411 
760.123818  	57.647374 
761.560725  	57.896585 
762.997632  	58.095699 
764.434539  	58.376963 
765.871446  	58.685595 
767.308353  	58.843816 
768.745260  	59.029248 
770.182167  	59.299062 
771.619075  	59.494621 
773.055982  	59.733700 
774.492889  	60.050319 
775.929796  	60.299513 
777.366703  	60.518218 
778.803610  	60.732284 
780.240517  	60.952223 
781.677424  	61.235515 
783.114331  	61.504002 
784.551238  	61.731772 
785.988145  	61.982110 
787.425052  	62.218472 
788.861959  	62.419833 
790.298866  	62.627376 
791.735773  	62.877394 
793.172680  	63.160359 
794.609587  	63.422660 
796.046494  	63.664337 
797.483401  	63.890310 
798.920308  	64.111552 
800.357215  	64.379783 
801.794122  	64.637798 
803.231029  	64.836784 
804.667936  	65.073649 
806.104843  	65.393147 
807.541750  	65.710177 
808.978657  	65.924081 
810.415564  	66.099374 
811.852471  	66.385885 
813.289378  	66.701227 
814.726285  	66.922367 
816.163192  	67.127580 
817.600099  	67.375976 
819.037006  	67.656518 
820.473913  	67.945321 
821.910821  	68.204868 
823.347728  	68.442005 
824.784635  	68.659883 
826.221542  	68.873440 
827.658449  	69.111482 
829.095356  	69.359674 
830.532263  	69.633785 
831.969170  	69.929903 
833.406077  	70.195853 
834.842984  	70.435882 
836.279891  	70.671417 
837.716798  	70.923802 
839.153705  	71.187058 
840.590612  	71.423643 
842.027519  	71.654950 
843.464426  	71.881868 
844.901333  	72.111345 
846.338240  	72.392259 
847.775147  	72.667873 
849.212054  	72.899033 
850.648961  	73.137684 
852.085868  	73.393672 
853.522775  	73.655040 
854.959682  	73.887943 
856.396589  	74.113595 
857.833496  	74.379376 
859.270403  	74.614687 
860.707310  	74.828872 
862.144217  	75.075217 
863.581124  	75.302439 
865.018031  	75.531657 
866.454938  	75.770201 
867.891845  	76.001563 
869.328752  	76.255263 
870.765660  	76.471832 
872.202567  	76.687606 
873.639474  	76.950588 
875.076381  	77.155500 
876.513288  	77.352557 
877.950195  	77.579257 
879.387102  	77.768690 
880.824009  	77.982526 
882.260916  	78.205586 
883.697823  	78.431495 
885.134730  	78.697424 
886.571637  	78.894300 
888.008544  	79.068417 
889.445451  	79.296285 
890.882358  	79.504777 
892.319265  	79.718090 
893.756172  	79.901188 
895.193079  	80.065752 
896.629986  	80.309130 
898.066893  	80.499600 
899.503800  	80.628062 
900.940707  	80.811681 
902.377614  	80.984743 
903.814521  	81.159693 
905.251428  	81.345637 
906.688335  	81.515309 
908.125242  	81.719076 
909.562149  	81.871027 
910.999056  	81.981533 
912.435963  	82.169076 
913.872870  	82.368018 
915.309777  	82.551307 
916.746684  	82.715291 
918.183591  	82.844555 
919.620498  	83.004557 
921.057406  	83.160819 
922.494313  	83.327205 
923.931220  	83.525256 
925.368127  	83.643593 
926.805034  	83.750955 
928.241941  	83.902656 
929.678848  	84.014302 
931.115755  	84.126406 
932.552662  	84.254294 
933.989569  	84.416090 
935.426476  	84.612123 
936.863383  	84.718998 
938.300290  	84.799059 
939.737197  	84.928478 
941.174104  	85.045626 
942.611011  	85.168292 
944.047918  	85.247247 
945.484825  	85.320611 
946.921732  	85.493327 
948.358639  	85.613020 
949.795546  	85.667507 
951.232453  	85.795610 
952.669360  	85.934380 
954.106267  	86.036368 
955.543174  	86.098430 
956.980081  	86.161670 
958.416988  	86.290510 
959.853895  	86.391250 
961.290802  	86.454753 
962.727709  	86.540351 
964.164616  	86.612112 
965.601523  	86.707297 
967.038430  	86.806410 
968.475337  	86.873460 
969.912244  	86.968080 
971.349152  	87.045764 
972.786059  	87.108665 
974.222966  	87.193319 
975.659873  	87.240014 
977.096780  	87.293304 
978.533687  	87.373911 
979.970594  	87.432869 
981.407501  	87.489371 
982.844408  	87.553763 
984.281315  	87.659480 
985.718222  	87.736522 
987.155129  	87.704850 
988.592036  	87.731561 
990.028943  	87.837071 
991.465850  	87.891491 
992.902757  	87.936564 
994.339664  	87.980050 
995.776571  	88.026893 
997.213478  	88.085942 
998.650385  	88.103586 
1000.087292  	88.143907 
1001.524199  	88.191526 
1002.961106  	88.199083 
1004.398013  	88.250112 
1005.834920  	88.284179 
1007.271827  	88.291364 
1008.708734  	88.353596 
1010.145641  	88.390567 
1011.582548  	88.416591 
1013.019455  	88.462678 
1014.456362  	88.495865 
1015.893269  	88.583274 
1017.330176  	88.659247 
1018.767083  	88.690151 
1020.203991  	88.763494 
1021.640898  	88.805998 
1023.077805  	88.818795 
1024.514712  	88.828620 
1025.951619  	88.795105 
1027.388526  	88.814694 
1028.825433  	88.835024 
1030.262340  	88.792356 
1031.699247  	88.817947 
1033.136154  	88.846245 
1034.573061  	88.829260 
1036.009968  	88.857646 
1037.446875  	88.887481 
1038.883782  	88.925764 
1040.320689  	88.959514 
1041.757596  	88.938055 
1043.194503  	88.950683 
1044.631410  	88.985935 
1046.068317  	89.023874 
1047.505224  	89.108123 
1048.942131  	89.151737 
1050.379038  	89.164305 
1051.815945  	89.201419 
1053.252852  	89.223558 
1054.689759  	89.259657 
1056.126666  	89.308207 
1057.563573  	89.355140 
1059.000480  	89.414604 
1060.437387  	89.446367 
1061.874294  	89.475011 
1063.311201  	89.497593 
1064.748108  	89.501425 
1066.185015  	89.553101 
1067.621922  	89.593140 
1069.058829  	89.598694 
1070.495737  	89.628540 
1071.932644  	89.623267 
1073.369551  	89.605166 
1074.806458  	89.614962 
1076.243365  	89.615799 
1077.680272  	89.630552 
1079.117179  	89.631866 
1080.554086  	89.635804 
1081.990993  	89.669929 
1083.427900  	89.635510 
1084.864807  	89.592295 
1086.301714  	89.611391 
1087.738621  	89.614642 
1089.175528  	89.631987 
1090.612435  	89.657727 
1092.049342  	89.647583 
1093.486249  	89.650819 
1094.923156  	89.649344 
1096.360063  	89.651843 
1097.796970  	89.679362 
1099.233877  	89.671466 
1100.670784  	89.649481 
1102.107691  	89.665565 
1103.544598  	89.723444 
1104.981505  	89.762704 
1106.418412  	89.732130 
1107.855319  	89.734315 
1109.292226  	89.766579 
1110.729133  	89.752975 
1112.166040  	89.782199 
1113.602947  	89.818798 
1115.039854  	89.802616 
1116.476761  	89.818655 
1117.913668  	89.837420 
1119.350575  	89.851525 
1120.787483  	89.878336 
1122.224390  	89.864623 
1123.661297  	89.875160 
1125.098204  	89.902822 
1126.535111  	89.892429 
1127.972018  	89.917428 
1129.408925  	89.948603 
1130.845832  	89.952111 
1132.282739  	89.955935 
1133.719646  	89.937149 
1135.156553  	89.940979 
1136.593460  	89.948628 
1138.030367  	89.928947 
1139.467274  	89.956039 
1140.904181  	89.965939 
1142.341088  	89.944560 
1143.777995  	89.968416 
1145.214902  	89.960267 
1146.651809  	89.942172 
1148.088716  	89.964544 
1149.525623  	89.948062 
1150.962530  	89.922501 
1152.399437  	89.911685 
1153.836344  	89.904455 
1155.273251  	89.933874 
1156.710158  	89.936658 
1158.147065  	89.905650 
1159.583972  	89.902515 
1161.020879  	89.911392 
1162.457786  	89.925092 
1163.894693  	89.915317 
1165.331600  	89.897676 
1166.768507  	89.921912 
1168.205414  	89.912635 
1169.642322  	89.871553 
1171.079229  	89.863864 
1172.516136  	89.855841 
1173.953043  	89.858548 
1175.389950  	89.862582 
1176.826857  	89.843907 
1178.263764  	89.848494 
1179.700671  	89.843173 
1181.137578  	89.830130 
1182.574485  	89.852092 
1184.011392  	89.847598 
1185.448299  	89.833443 
1186.885206  	89.844035 
1188.322113  	89.827884 
1189.759020  	89.803625 
1191.195927  	89.794801 
1192.632834  	89.797196 
1194.069741  	89.809996 
1195.506648  	89.802552 
1196.943555  	89.799885 
1198.380462  	89.814819 
1199.817369  	89.807459 
1201.254276  	89.792820 
1202.691183  	89.782430 
1204.128090  	89.779859 
1205.564997  	89.781130 
1207.001904  	89.758129 
1208.438811  	89.751982 
1209.875718  	89.769753 
1211.312625  	89.766414 
1212.749532  	89.773744 
1214.186439  	89.788747 
1215.623346  	89.782487 
1217.060253  	89.778652 
1218.497160  	89.779177 
1219.934068  	89.782535 
1221.370975  	89.778482 
1222.807882  	89.771836 
1224.244789  	89.790600 
1225.681696  	89.787627 
1227.118603  	89.762812 
1228.555510  	89.770645 
1229.992417  	89.772785 
1231.429324  	89.762468 
1232.866231  	89.764821 
1234.303138  	89.767263 
1235.740045  	89.781808 
1237.176952  	89.782514 
1238.613859  	89.759896 
1240.050766  	89.753682 
1241.487673  	89.751684 
1242.924580  	89.758752 
1244.361487  	89.764924 
1245.798394  	89.740981 
1247.235301  	89.740168 
1248.672208  	89.755436 
1250.109115  	89.740363 
1251.546022  	89.722667 
1252.982929  	89.704755 
1254.419836  	89.694637 
1255.856743  	89.703455 
1257.293650  	89.706494 
1258.730557  	89.708614 
1260.167464  	89.691948 
1261.604371  	89.667156 
1263.041278  	89.682700 
1264.478185  	89.696320 
1265.915092  	89.690229 
1267.351999  	89.685708 
1268.788907  	89.668854 
1270.225814  	89.658252 
1271.662721  	89.648442 
1273.099628  	89.639058 
1274.536535  	89.646774 
1275.973442  	89.629551 
1277.410349  	89.616947 
1278.847256  	89.629526 
1280.284163  	89.612180 
1281.721070  	89.608513 
1283.157977  	89.624248 
1284.594884  	89.621715 
1286.031791  	89.639002 
1287.468698  	89.644248 
1288.905605  	89.640740 
1290.342512  	89.667549 
1291.779419  	89.662150 
1293.216326  	89.655532 
1294.653233  	89.678128 
1296.090140  	89.669620 
1297.527047  	89.662189 
1298.963954  	89.670098 
1300.400861  	89.683698 
1301.837768  	89.691595 
1303.274675  	89.707084 
1304.711582  	89.710413 
1306.148489  	89.740760 
1307.585396  	89.738994 
1309.022303  	89.731538 
1310.459210  	89.738595 
1311.896117  	89.731944 
1313.333024  	89.725663 
1314.769931  	89.719164 
1316.206838  	89.710984 
1317.643745  	89.719290 
1319.080653  	89.723152 
1320.517560  	89.742690 
1321.954467  	89.750600 
1323.391374  	89.745983 
1324.828281  	89.757653 
1326.265188  	89.769783 
1327.702095  	89.760270 
1329.139002  	89.764645 
1330.575909  	89.762728 
1332.012816  	89.759838 
1333.449723  	89.760802 
1334.886630  	89.743994 
1336.323537  	89.734653 
1337.760444  	89.710520 
1339.197351  	89.686027 
1340.634258  	89.674399 
1342.071165  	89.671994 
1343.508072  	89.689160 
1344.944979  	89.683484 
1346.381886  	89.662648 
1347.818793  	89.661869 
1349.255700  	89.657484 
1350.692607  	89.635197 
1352.129514  	89.629927 
1353.566421  	89.622100 
1355.003328  	89.610946 
1356.440235  	89.611734 
1357.877142  	89.586524 
1359.314049  	89.575209 
1360.750956  	89.562665 
1362.187863  	89.526614 
1363.624770  	89.493397 
1365.061677  	89.497978 
1366.498584  	89.502901 
1367.935491  	89.482761 
1369.372399  	89.419853 
1370.809306  	89.405190 
1372.246213  	89.393757 
1373.683120  	89.336629 
1375.120027  	89.302092 
1376.556934  	89.285009 
1377.993841  	89.264422 
1379.430748  	89.241511 
1380.867655  	89.218733 
1382.304562  	89.207947 
1383.741469  	89.202374 
1385.178376  	89.197653 
1386.615283  	89.195196 
1388.052190  	89.157681 
1389.489097  	89.156579 
1390.926004  	89.189674 
1392.362911  	89.204831 
1393.799818  	89.194228 
1395.236725  	89.171141 
1396.673632  	89.179963 
1398.110539  	89.230885 
1399.547446  	89.236817 
1400.984353  	89.245641 
1402.421260  	89.285967 
1403.858167  	89.306670 
1405.295074  	89.296792 
1406.731981  	89.307611 
1408.168888  	89.329271 
1409.605795  	89.370851 
1411.042702  	89.395716 
1412.479609  	89.387485 
1413.916516  	89.403277 
1415.353423  	89.410699 
1416.790330  	89.428710 
1418.227238  	89.461978 
1419.664145  	89.400875 
1421.101052  	89.418937 
1422.537959  	89.468434 
1423.974866  	89.458851 
1425.411773  	89.473020 
1426.848680  	89.517661 
1428.285587  	89.527817 
1429.722494  	89.514039 
1431.159401  	89.479706 
1432.596308  	89.477141 
1434.033215  	89.518464 
1435.470122  	89.518477 
1436.907029  	89.425529 
1438.343936  	89.373051 
1439.780843  	89.434924 
1441.217750  	89.493997 
1442.654657  	89.488523 
1444.091564  	89.492939 
1445.528471  	89.493007 
1446.965378  	89.478642 
1448.402285  	89.463627 
1449.839192  	89.463412 
1451.276099  	89.467296 
1452.713006  	89.466448 
1454.149913  	89.431845 
1455.586820  	89.402614 
1457.023727  	89.362548 
1458.460634  	89.305314 
1459.897541  	89.339117 
1461.334448  	89.371843 
1462.771355  	89.381168 
1464.208262  	89.380925 
1465.645169  	89.325478 
1467.082076  	89.307867 
1468.518984  	89.313504 
1469.955891  	89.301244 
1471.392798  	89.289311 
1472.829705  	89.218554 
1474.266612  	89.175056 
1475.703519  	89.208287 
1477.140426  	89.180798 
1478.577333  	89.181651 
1480.014240  	89.197031 
1481.451147  	89.144611 
1482.888054  	89.120683 
1484.324961  	89.117828 
1485.761868  	89.076052 
1487.198775  	89.060705 
1488.635682  	89.032320 
1490.072589  	88.954816 
1491.509496  	88.913354 
1492.946403  	88.905692 
1494.383310  	88.913029 
1495.820217  	88.880126 
1497.257124  	88.794585 
1498.694031  	88.758219 
1500.130938  	88.714148 
1501.567845  	88.674222 
1503.004752  	88.666607 
1504.441659  	88.639272 
1505.878566  	88.611192 
1507.315473  	88.478393 
1508.752380  	88.356087 
1510.189287  	88.402892 
1511.626194  	88.386237 
1513.063101  	88.344458 
1514.500008  	88.327437 
1515.936915  	88.250443 
1517.373822  	88.159743 
1518.810730  	88.137648 
1520.247637  	88.096284 
1521.684544  	88.045279 
