##TITLE=No Description
##DATA TYPE=INFRARED SPECTRUM
##XUNITS=1/CM
##YUNITS=%T
399.460154  	33.843856 
400.897061  	31.567729 
402.333968  	31.681582 
403.770875  	31.413227 
405.207782  	30.929607 
406.644689  	32.125550 
408.081596  	31.917396 
409.518503  	32.186336 
410.955410  	32.612705 
412.392317  	31.359552 
413.829224  	31.014123 
415.266131  	30.987243 
416.703038  	30.947400 
418.139945  	32.510049 
419.576852  	31.674361 
421.013759  	30.848101 
422.450666  	31.631418 
423.887574  	31.133379 
425.324481  	30.774570 
426.761388  	30.678860 
428.198295  	30.844438 
429.635202  	31.640486 
431.072109  	31.361582 
432.509016  	31.240537 
433.945923  	31.995356 
435.382830  	31.761109 
436.819737  	31.314455 
438.256644  	31.060793 
439.693551  	31.033281 
441.130458  	31.882014 
442.567365  	31.528301 
444.004272  	31.191638 
445.441179  	31.837347 
446.878086  	31.543331 
448.314993  	31.898018 
449.751900  	32.166441 
451.188807  	31.316730 
452.625714  	31.675563 
454.062621  	32.338967 
455.499528  	32.303973 
456.936435  	32.752611 
458.373342  	32.612556 
459.810249  	32.107049 
461.247156  	31.708985 
462.684063  	31.303156 
464.120970  	31.742895 
465.557877  	32.077757 
466.994784  	31.935949 
468.431691  	31.912550 
469.868598  	31.835185 
471.305505  	32.110869 
472.742413  	32.241272 
474.179320  	31.914403 
475.616227  	31.962966 
477.053134  	31.725269 
478.490041  	31.600909 
479.926948  	32.009252 
481.363855  	31.817833 
482.800762  	31.763332 
484.237669  	31.888234 
485.674576  	31.394974 
487.111483  	31.455802 
488.548390  	31.944869 
489.985297  	32.120703 
491.422204  	32.343123 
492.859111  	32.071451 
494.296018  	31.600755 
495.732925  	31.847841 
497.169832  	32.111399 
498.606739  	31.921954 
500.043646  	31.945446 
501.480553  	32.415518 
502.917460  	32.529648 
504.354367  	32.161962 
505.791274  	32.103675 
507.228181  	32.179108 
508.665088  	32.316653 
510.101995  	32.653957 
511.538902  	32.614715 
512.975809  	32.585462 
514.412716  	32.910552 
515.849623  	32.903681 
517.286530  	32.949317 
518.723437  	33.248099 
520.160344  	33.103959 
521.597251  	32.822365 
523.034159  	32.714521 
524.471066  	32.834074 
525.907973  	33.081971 
527.344880  	33.034490 
528.781787  	33.061567 
530.218694  	33.232106 
531.655601  	33.187079 
533.092508  	33.301377 
534.529415  	33.437956 
535.966322  	33.276895 
537.403229  	33.270851 
538.840136  	33.439506 
540.277043  	33.578475 
541.713950  	33.668624 
543.150857  	33.669152 
544.587764  	33.781681 
546.024671  	33.905501 
547.461578  	33.864879 
548.898485  	33.947863 
550.335392  	34.144042 
551.772299  	34.314905 
553.209206  	34.436925 
554.646113  	34.465592 
556.083020  	34.488043 
557.519927  	34.460040 
558.956834  	34.487853 
560.393741  	34.721954 
561.830648  	34.890593 
563.267555  	34.964064 
564.704462  	35.025649 
566.141369  	34.943305 
567.578276  	34.957072 
569.015183  	35.155685 
570.452090  	35.284436 
571.888997  	35.393171 
573.325905  	35.479220 
574.762812  	35.510398 
576.199719  	35.608986 
577.636626  	35.709600 
579.073533  	35.802688 
580.510440  	35.991885 
581.947347  	36.178707 
583.384254  	36.285679 
584.821161  	36.354892 
586.258068  	36.436259 
587.694975  	36.535955 
589.131882  	36.616087 
590.568789  	36.690672 
592.005696  	36.792703 
593.442603  	36.920628 
594.879510  	37.050081 
596.316417  	37.171140 
597.753324  	37.305352 
599.190231  	37.388876 
600.627138  	37.427251 
602.064045  	37.582100 
603.500952  	37.784230 
604.937859  	37.890603 
606.374766  	37.949793 
607.811673  	38.048669 
609.248580  	38.224137 
610.685487  	38.376152 
612.122394  	38.446047 
613.559301  	38.558608 
614.996208  	38.703001 
616.433115  	38.859059 
617.870022  	39.082383 
619.306929  	39.245414 
620.743836  	39.345582 
622.180744  	39.445383 
623.617651  	39.516463 
625.054558  	39.683481 
626.491465  	39.891271 
627.928372  	39.967301 
629.365279  	40.073458 
630.802186  	40.261957 
632.239093  	40.421545 
633.676000  	40.578435 
635.112907  	40.720481 
636.549814  	40.861460 
637.986721  	41.023826 
639.423628  	41.165582 
640.860535  	41.309881 
642.297442  	41.454765 
643.734349  	41.579493 
645.171256  	41.736264 
646.608163  	41.907241 
648.045070  	42.048356 
649.481977  	42.194464 
650.918884  	42.356329 
652.355791  	42.508974 
653.792698  	42.662722 
655.229605  	42.842220 
656.666512  	43.020854 
658.103419  	43.203496 
659.540326  	43.384679 
660.977233  	43.536688 
662.414140  	43.673964 
663.851047  	43.850750 
665.287954  	43.993159 
666.724861  	44.108267 
668.161768  	44.363032 
669.598675  	44.640266 
671.035582  	44.762438 
672.472490  	44.921773 
673.909397  	45.135159 
675.346304  	45.327905 
676.783211  	45.505277 
678.220118  	45.700421 
679.657025  	45.905987 
681.093932  	46.086094 
682.530839  	46.238165 
683.967746  	46.408313 
685.404653  	46.612157 
686.841560  	46.810477 
688.278467  	46.999962 
689.715374  	47.157076 
691.152281  	47.281187 
692.589188  	47.427075 
694.026095  	47.645043 
695.463002  	47.878298 
696.899909  	48.089854 
698.336816  	48.295539 
699.773723  	48.493919 
701.210630  	48.682201 
702.647537  	48.867309 
704.084444  	49.095657 
705.521351  	49.296608 
706.958258  	49.484233 
708.395165  	49.680264 
709.832072  	49.864303 
711.268979  	50.027461 
712.705886  	50.259634 
714.142793  	50.548172 
715.579700  	50.828958 
717.016607  	51.028061 
718.453514  	51.173609 
719.890421  	51.322313 
721.327328  	51.530650 
722.764236  	51.785445 
724.201143  	52.029618 
725.638050  	52.224010 
727.074957  	52.413984 
728.511864  	52.681585 
729.948771  	52.954309 
731.385678  	53.145637 
732.822585  	53.321325 
734.259492  	53.564217 
735.696399  	53.825168 
737.133306  	54.034617 
738.570213  	54.221372 
740.007120  	54.453943 
741.444027  	54.727338 
742.880934  	54.964491 
744.317841  	55.171205 
745.754748  	55.401633 
747.191655  	55.583858 
748.628562  	55.724755 
750.065469  	55.970162 
751.502376  	56.263787 
752.939283  	56.482140 
754.376190  	56.713068 
755.813097  	56.973688 
757.250004  	57.180904 
758.686911  	57.421061 
760.123818  	57.733148 
761.560725  	57.971492 
762.997632  	58.125632 
764.434539  	58.326089 
765.871446  	58.588475 
767.308353  	58.860535 
768.745260  	59.101678 
770.182167  	59.283012 
771.619075  	59.474630 
773.055982  	59.755355 
774.492889  	60.083269 
775.929796  	60.356117 
777.366703  	60.516348 
778.803610  	60.669800 
780.240517  	60.945756 
781.677424  	61.239165 
783.114331  	61.448279 
784.551238  	61.665524 
785.988145  	61.916947 
787.425052  	62.155405 
788.861959  	62.423659 
790.298866  	62.723066 
791.735773  	62.955987 
793.172680  	63.157445 
794.609587  	63.456083 
796.046494  	63.740328 
797.483401  	63.908862 
798.920308  	64.139727 
800.357215  	64.421402 
801.794122  	64.626507 
803.231029  	64.867684 
804.667936  	65.136741 
806.104843  	65.367695 
807.541750  	65.647270 
808.978657  	65.919539 
810.415564  	66.149101 
811.852471  	66.400036 
813.289378  	66.641463 
814.726285  	66.921671 
816.163192  	67.229598 
817.600099  	67.448204 
819.037006  	67.649337 
820.473913  	67.883100 
821.910821  	68.113412 
823.347728  	68.368158 
824.784635  	68.624223 
826.221542  	68.876369 
827.658449  	69.147448 
829.095356  	69.427591 
830.532263  	69.712056 
831.969170  	69.932049 
833.406077  	70.128240 
834.842984  	70.413835 
836.279891  	70.694047 
837.716798  	70.912705 
839.153705  	71.136979 
840.590612  	71.387251 
842.027519  	71.673239 
843.464426  	71.930940 
844.901333  	72.146970 
846.338240  	72.398600 
847.775147  	72.667487 
849.212054  	72.960305 
850.648961  	73.239703 
852.085868  	73.438643 
853.522775  	73.666753 
854.959682  	73.919001 
856.396589  	74.138838 
857.833496  	74.398091 
859.270403  	74.631832 
860.707310  	74.834409 
862.144217  	75.086802 
863.581124  	75.331761 
865.018031  	75.583001 
866.454938  	75.835969 
867.891845  	76.047518 
869.328752  	76.281704 
870.765660  	76.499552 
872.202567  	76.693568 
873.639474  	76.931358 
875.076381  	77.173081 
876.513288  	77.410097 
877.950195  	77.603682 
879.387102  	77.763069 
880.824009  	77.995150 
882.260916  	78.233023 
883.697823  	78.458889 
885.134730  	78.692303 
886.571637  	78.862316 
888.008544  	79.085647 
889.445451  	79.334298 
890.882358  	79.478582 
892.319265  	79.663354 
893.756172  	79.877299 
895.193079  	80.068412 
896.629986  	80.308215 
898.066893  	80.501025 
899.503800  	80.675232 
900.940707  	80.858380 
902.377614  	80.983187 
903.814521  	81.182416 
905.251428  	81.391880 
906.688335  	81.534491 
908.125242  	81.761906 
909.562149  	81.955226 
910.999056  	82.079393 
912.435963  	82.256039 
913.872870  	82.381053 
915.309777  	82.515188 
916.746684  	82.709185 
918.183591  	82.848991 
919.620498  	83.015011 
921.057406  	83.201667 
922.494313  	83.350638 
923.931220  	83.520656 
925.368127  	83.669526 
926.805034  	83.820780 
928.241941  	83.983063 
929.678848  	84.087019 
931.115755  	84.213168 
932.552662  	84.362144 
933.989569  	84.475204 
935.426476  	84.582435 
936.863383  	84.684715 
938.300290  	84.827951 
939.737197  	84.977216 
941.174104  	85.065424 
942.611011  	85.170685 
944.047918  	85.273136 
945.484825  	85.373715 
946.921732  	85.528343 
948.358639  	85.657715 
949.795546  	85.789110 
951.232453  	85.921032 
952.669360  	85.976302 
954.106267  	86.053889 
955.543174  	86.150829 
956.980081  	86.230962 
958.416988  	86.351784 
959.853895  	86.439240 
961.290802  	86.508244 
962.727709  	86.602423 
964.164616  	86.669396 
965.601523  	86.769910 
967.038430  	86.874675 
968.475337  	86.946674 
969.912244  	87.040360 
971.349152  	87.068312 
972.786059  	87.083227 
974.222966  	87.177925 
975.659873  	87.252365 
977.096780  	87.342354 
978.533687  	87.450474 
979.970594  	87.503660 
981.407501  	87.570667 
982.844408  	87.631849 
984.281315  	87.694425 
985.718222  	87.801444 
987.155129  	87.865881 
988.592036  	87.920724 
990.028943  	87.972973 
991.465850  	87.968146 
992.902757  	87.996067 
994.339664  	88.039761 
995.776571  	88.080788 
997.213478  	88.166331 
998.650385  	88.202641 
1000.087292  	88.220425 
1001.524199  	88.279828 
1002.961106  	88.295016 
1004.398013  	88.315558 
1005.834920  	88.374304 
1007.271827  	88.401592 
1008.708734  	88.425310 
1010.145641  	88.465705 
1011.582548  	88.507205 
1013.019455  	88.547954 
1014.456362  	88.602915 
1015.893269  	88.679534 
1017.330176  	88.717157 
1018.767083  	88.739603 
1020.203991  	88.795055 
1021.640898  	88.824505 
1023.077805  	88.850134 
1024.514712  	88.893936 
1025.951619  	88.917641 
1027.388526  	88.931911 
1028.825433  	88.921052 
1030.262340  	88.926339 
1031.699247  	88.959053 
1033.136154  	88.935053 
1034.573061  	88.933713 
1036.009968  	88.980159 
1037.446875  	88.977225 
1038.883782  	88.980665 
1040.320689  	89.008902 
1041.757596  	89.055745 
1043.194503  	89.137998 
1044.631410  	89.163622 
1046.068317  	89.181255 
1047.505224  	89.249716 
1048.942131  	89.275812 
1050.379038  	89.282930 
1051.815945  	89.288463 
1053.252852  	89.303512 
1054.689759  	89.376335 
1056.126666  	89.413577 
1057.563573  	89.427509 
1059.000480  	89.469978 
1060.437387  	89.463354 
1061.874294  	89.469593 
1063.311201  	89.507319 
1064.748108  	89.513691 
1066.185015  	89.546838 
1067.621922  	89.584258 
1069.058829  	89.608903 
1070.495737  	89.644988 
1071.932644  	89.643960 
1073.369551  	89.646131 
1074.806458  	89.650479 
1076.243365  	89.634537 
1077.680272  	89.659411 
1079.117179  	89.671169 
1080.554086  	89.667995 
1081.990993  	89.689967 
1083.427900  	89.688096 
1084.864807  	89.717125 
1086.301714  	89.732615 
1087.738621  	89.670022 
1089.175528  	89.662395 
1090.612435  	89.679077 
1092.049342  	89.668230 
1093.486249  	89.700610 
1094.923156  	89.716347 
1096.360063  	89.720449 
1097.796970  	89.736459 
1099.233877  	89.719957 
1100.670784  	89.739325 
1102.107691  	89.776956 
1103.544598  	89.786520 
1104.981505  	89.802954 
1106.418412  	89.792803 
1107.855319  	89.799937 
1109.292226  	89.835279 
1110.729133  	89.831270 
1112.166040  	89.853423 
1113.602947  	89.876099 
1115.039854  	89.854769 
1116.476761  	89.865244 
1117.913668  	89.871705 
1119.350575  	89.878060 
1120.787483  	89.911500 
1122.224390  	89.909671 
1123.661297  	89.918452 
1125.098204  	89.938771 
1126.535111  	89.939646 
1127.972018  	89.970491 
1129.408925  	89.978450 
1130.845832  	89.972947 
1132.282739  	89.990019 
1133.719646  	89.964307 
1135.156553  	89.966335 
1136.593460  	90.001242 
1138.030367  	89.979546 
1139.467274  	89.966514 
1140.904181  	89.954802 
1142.341088  	89.930585 
1143.777995  	89.954806 
1145.214902  	89.959854 
1146.651809  	89.944172 
1148.088716  	89.957043 
1149.525623  	89.955127 
1150.962530  	89.949358 
1152.399437  	89.941904 
1153.836344  	89.938384 
1155.273251  	89.961497 
1156.710158  	89.948775 
1158.147065  	89.918609 
1159.583972  	89.917161 
1161.020879  	89.913219 
1162.457786  	89.920784 
1163.894693  	89.919471 
1165.331600  	89.909465 
1166.768507  	89.936355 
1168.205414  	89.932588 
1169.642322  	89.894096 
1171.079229  	89.881332 
1172.516136  	89.871400 
1173.953043  	89.876302 
1175.389950  	89.891916 
1176.826857  	89.893871 
1178.263764  	89.896351 
1179.700671  	89.867681 
1181.137578  	89.846724 
1182.574485  	89.877284 
1184.011392  	89.881073 
1185.448299  	89.860510 
1186.885206  	89.851244 
1188.322113  	89.830349 
1189.759020  	89.819292 
1191.195927  	89.827285 
1192.632834  	89.847711 
1194.069741  	89.857386 
1195.506648  	89.822181 
1196.943555  	89.801107 
1198.380462  	89.813479 
1199.817369  	89.810803 
1201.254276  	89.812212 
1202.691183  	89.814197 
1204.128090  	89.802100 
1205.564997  	89.797077 
1207.001904  	89.796343 
1208.438811  	89.805205 
1209.875718  	89.804192 
1211.312625  	89.780660 
1212.749532  	89.774028 
1214.186439  	89.773910 
1215.623346  	89.776352 
1217.060253  	89.790888 
1218.497160  	89.782631 
1219.934068  	89.772701 
1221.370975  	89.776912 
1222.807882  	89.775852 
1224.244789  	89.783499 
1225.681696  	89.778736 
1227.118603  	89.767070 
1228.555510  	89.776094 
1229.992417  	89.777671 
1231.429324  	89.781453 
1232.866231  	89.777161 
1234.303138  	89.752204 
1235.740045  	89.768081 
1237.176952  	89.787364 
1238.613859  	89.761498 
1240.050766  	89.744268 
1241.487673  	89.733485 
1242.924580  	89.721206 
1244.361487  	89.723714 
1245.798394  	89.734373 
1247.235301  	89.764452 
1248.672208  	89.776106 
1250.109115  	89.749380 
1251.546022  	89.731830 
1252.982929  	89.720691 
1254.419836  	89.716760 
1255.856743  	89.719248 
1257.293650  	89.708843 
1258.730557  	89.712222 
1260.167464  	89.707721 
1261.604371  	89.688450 
1263.041278  	89.696885 
1264.478185  	89.695193 
1265.915092  	89.691126 
1267.351999  	89.707637 
1268.788907  	89.691145 
1270.225814  	89.675310 
1271.662721  	89.687787 
1273.099628  	89.686695 
1274.536535  	89.677199 
1275.973442  	89.649473 
1277.410349  	89.623855 
1278.847256  	89.631450 
1280.284163  	89.628414 
1281.721070  	89.624103 
1283.157977  	89.632954 
1284.594884  	89.633289 
1286.031791  	89.653876 
1287.468698  	89.680907 
1288.905605  	89.691998 
1290.342512  	89.698397 
1291.779419  	89.683651 
1293.216326  	89.676782 
1294.653233  	89.683872 
1296.090140  	89.675892 
1297.527047  	89.688875 
1298.963954  	89.706375 
1300.400861  	89.702479 
1301.837768  	89.713922 
1303.274675  	89.727189 
1304.711582  	89.733425 
1306.148489  	89.740687 
1307.585396  	89.752154 
1309.022303  	89.758750 
1310.459210  	89.766505 
1311.896117  	89.762377 
1313.333024  	89.765329 
1314.769931  	89.762393 
1316.206838  	89.760127 
1317.643745  	89.748347 
1319.080653  	89.743835 
1320.517560  	89.756925 
1321.954467  	89.777895 
1323.391374  	89.778282 
1324.828281  	89.774915 
1326.265188  	89.773298 
1327.702095  	89.764189 
1329.139002  	89.769376 
1330.575909  	89.765702 
1332.012816  	89.768371 
1333.449723  	89.777375 
1334.886630  	89.745015 
1336.323537  	89.731160 
1337.760444  	89.726413 
1339.197351  	89.698729 
1340.634258  	89.693830 
1342.071165  	89.694988 
1343.508072  	89.704229 
1344.944979  	89.731379 
1346.381886  	89.732507 
1347.818793  	89.710607 
1349.255700  	89.692518 
1350.692607  	89.673848 
1352.129514  	89.660901 
1353.566421  	89.647655 
1355.003328  	89.647869 
1356.440235  	89.634787 
1357.877142  	89.601863 
1359.314049  	89.597537 
1360.750956  	89.590306 
1362.187863  	89.542259 
1363.624770  	89.517490 
1365.061677  	89.526424 
1366.498584  	89.533168 
1367.935491  	89.504616 
1369.372399  	89.470151 
1370.809306  	89.436662 
1372.246213  	89.415759 
1373.683120  	89.367623 
1375.120027  	89.321859 
1376.556934  	89.281231 
1377.993841  	89.252431 
1379.430748  	89.227619 
1380.867655  	89.192072 
1382.304562  	89.184448 
1383.741469  	89.184198 
1385.178376  	89.171894 
1386.615283  	89.151843 
1388.052190  	89.112342 
1389.489097  	89.112506 
1390.926004  	89.142395 
1392.362911  	89.170405 
1393.799818  	89.165436 
1395.236725  	89.174411 
1396.673632  	89.193780 
1398.110539  	89.209768 
1399.547446  	89.189494 
1400.984353  	89.197424 
1402.421260  	89.254789 
1403.858167  	89.283461 
1405.295074  	89.302871 
1406.731981  	89.330796 
1408.168888  	89.323316 
1409.605795  	89.332266 
1411.042702  	89.337322 
1412.479609  	89.344140 
1413.916516  	89.371709 
1415.353423  	89.411354 
1416.790330  	89.419168 
1418.227238  	89.380218 
1419.664145  	89.320900 
1421.101052  	89.392665 
1422.537959  	89.488545 
1423.974866  	89.518141 
1425.411773  	89.513845 
1426.848680  	89.497845 
1428.285587  	89.477294 
1429.722494  	89.482390 
1431.159401  	89.517976 
1432.596308  	89.573786 
1434.033215  	89.590298 
1435.470122  	89.542207 
1436.907029  	89.485330 
1438.343936  	89.481288 
1439.780843  	89.527142 
1441.217750  	89.548809 
1442.654657  	89.542874 
1444.091564  	89.514427 
1445.528471  	89.500678 
1446.965378  	89.500953 
1448.402285  	89.523891 
1449.839192  	89.507192 
1451.276099  	89.471885 
1452.713006  	89.453824 
1454.149913  	89.456248 
1455.586820  	89.499357 
1457.023727  	89.532076 
1458.460634  	89.376112 
1459.897541  	89.335201 
1461.334448  	89.353453 
1462.771355  	89.390799 
1464.208262  	89.439316 
1465.645169  	89.431780 
1467.082076  	89.408990 
1468.518984  	89.375678 
1469.955891  	89.327251 
1471.392798  	89.304434 
1472.829705  	89.317338 
1474.266612  	89.353049 
1475.703519  	89.360592 
1477.140426  	89.262837 
1478.577333  	89.195247 
1480.014240  	89.198321 
1481.451147  	89.181304 
1482.888054  	89.196822 
1484.324961  	89.198717 
1485.761868  	89.157603 
1487.198775  	89.104909 
1488.635682  	89.014999 
1490.072589  	88.969755 
1491.509496  	88.999523 
1492.946403  	89.012966 
1494.383310  	89.011520 
1495.820217  	88.924615 
1497.257124  	88.789551 
1498.694031  	88.771489 
1500.130938  	88.764337 
1501.567845  	88.753218 
1503.004752  	88.751590 
1504.441659  	88.675887 
1505.878566  	88.611142 
1507.315473  	88.627633 
1508.752380  	88.534698 
1510.189287  	88.510401 
1511.626194  	88.417067 
1513.063101  	88.357158 
1514.500008  	88.365991 
1515.936915  	88.330289 
1517.373822  	88.328682 
1518.810730  	88.284559 
1520.247637  	88.120755 
1521.684544  	87.954034 
