##TITLE=No Description
##DATA TYPE=INFRARED SPECTRUM
##XUNITS=1/CM
##YUNITS=%T
399.460154  	32.696009 
400.897061  	30.760973 
402.333968  	30.996263 
403.770875  	30.325559 
405.207782  	30.619124 
406.644689  	30.984761 
408.081596  	30.359267 
409.518503  	31.380891 
410.955410  	31.465712 
412.392317  	30.005383 
413.829224  	30.201334 
415.266131  	30.076642 
416.703038  	30.089365 
418.139945  	31.735918 
419.576852  	31.039909 
421.013759  	30.430108 
422.450666  	30.460542 
423.887574  	30.899314 
425.324481  	31.787035 
426.761388  	31.295473 
428.198295  	30.659152 
429.635202  	30.559767 
431.072109  	30.180901 
432.509016  	30.756565 
433.945923  	31.482742 
435.382830  	31.570996 
436.819737  	32.059920 
438.256644  	31.721902 
439.693551  	31.332062 
441.130458  	31.440110 
442.567365  	30.615380 
444.004272  	30.409457 
445.441179  	31.228741 
446.878086  	31.806027 
448.314993  	32.156835 
449.751900  	31.456573 
451.188807  	30.870969 
452.625714  	31.523839 
454.062621  	31.433149 
455.499528  	30.982104 
456.936435  	31.523382 
458.373342  	32.144954 
459.810249  	32.164659 
461.247156  	32.317831 
462.684063  	32.697900 
464.120970  	32.301076 
465.557877  	31.213194 
466.994784  	31.133081 
468.431691  	31.639167 
469.868598  	31.716579 
471.305505  	32.089396 
472.742413  	32.373638 
474.179320  	32.078593 
475.616227  	31.780707 
477.053134  	31.667799 
478.490041  	31.970260 
479.926948  	32.040848 
481.363855  	31.990692 
482.800762  	32.293740 
484.237669  	32.038602 
485.674576  	31.651732 
487.111483  	31.848192 
488.548390  	32.061082 
489.985297  	32.359985 
491.422204  	32.256131 
492.859111  	31.820008 
494.296018  	32.006262 
495.732925  	32.063481 
497.169832  	32.065190 
498.606739  	32.518553 
500.043646  	32.469688 
501.480553  	32.110794 
502.917460  	32.124032 
504.354367  	32.356740 
505.791274  	32.936442 
507.228181  	33.236148 
508.665088  	32.975898 
510.101995  	32.941912 
511.538902  	32.880926 
512.975809  	32.787115 
514.412716  	32.961526 
515.849623  	33.089516 
517.286530  	33.163013 
518.723437  	33.175510 
520.160344  	33.099242 
521.597251  	33.121634 
523.034159  	33.129106 
524.471066  	33.123938 
525.907973  	33.173963 
527.344880  	33.302560 
528.781787  	33.514729 
530.218694  	33.562221 
531.655601  	33.590096 
533.092508  	33.790029 
534.529415  	33.815923 
535.966322  	33.741655 
537.403229  	33.767992 
538.840136  	33.746436 
540.277043  	33.807239 
541.713950  	34.028110 
543.150857  	34.223857 
544.587764  	34.272430 
546.024671  	34.245172 
547.461578  	34.321885 
548.898485  	34.327605 
550.335392  	34.256593 
551.772299  	34.364432 
553.209206  	34.546946 
554.646113  	34.762295 
556.083020  	34.935862 
557.519927  	34.955045 
558.956834  	35.038638 
560.393741  	35.091551 
561.830648  	35.108160 
563.267555  	35.288776 
564.704462  	35.341826 
566.141369  	35.353508 
567.578276  	35.528445 
569.015183  	35.550529 
570.452090  	35.595178 
571.888997  	35.813275 
573.325905  	35.956355 
574.762812  	36.103933 
576.199719  	36.182896 
577.636626  	36.164822 
579.073533  	36.283284 
580.510440  	36.448426 
581.947347  	36.614669 
583.384254  	36.752806 
584.821161  	36.815617 
586.258068  	36.968610 
587.694975  	37.079390 
589.131882  	37.068032 
590.568789  	37.158086 
592.005696  	37.294777 
593.442603  	37.442256 
594.879510  	37.603207 
596.316417  	37.695775 
597.753324  	37.857658 
599.190231  	38.032979 
600.627138  	38.083779 
602.064045  	38.136289 
603.500952  	38.222226 
604.937859  	38.392260 
606.374766  	38.579608 
607.811673  	38.667484 
609.248580  	38.794963 
610.685487  	38.974088 
612.122394  	39.085980 
613.559301  	39.228196 
614.996208  	39.367679 
616.433115  	39.494491 
617.870022  	39.654608 
619.306929  	39.768046 
620.743836  	39.936683 
622.180744  	40.136926 
623.617651  	40.214929 
625.054558  	40.292229 
626.491465  	40.434023 
627.928372  	40.606346 
629.365279  	40.803752 
630.802186  	40.927219 
632.239093  	41.016249 
633.676000  	41.145179 
635.112907  	41.299451 
636.549814  	41.511122 
637.986721  	41.684181 
639.423628  	41.790217 
640.860535  	41.929830 
642.297442  	42.072784 
643.734349  	42.246097 
645.171256  	42.433726 
646.608163  	42.589508 
648.045070  	42.747406 
649.481977  	42.896428 
650.918884  	43.052635 
652.355791  	43.235998 
653.792698  	43.383667 
655.229605  	43.550208 
656.666512  	43.739862 
658.103419  	43.870533 
659.540326  	44.035734 
660.977233  	44.257051 
662.414140  	44.436704 
663.851047  	44.594298 
665.287954  	44.673700 
666.724861  	44.785704 
668.161768  	45.050987 
669.598675  	45.314419 
671.035582  	45.445848 
672.472490  	45.621236 
673.909397  	45.783282 
675.346304  	45.942584 
676.783211  	46.162579 
678.220118  	46.358439 
679.657025  	46.546940 
681.093932  	46.755910 
682.530839  	46.947742 
683.967746  	47.151189 
685.404653  	47.357959 
686.841560  	47.532410 
688.278467  	47.708943 
689.715374  	47.928801 
691.152281  	48.154182 
692.589188  	48.353628 
694.026095  	48.514405 
695.463002  	48.677923 
696.899909  	48.902556 
698.336816  	49.088240 
699.773723  	49.254452 
701.210630  	49.477425 
702.647537  	49.669835 
704.084444  	49.829238 
705.521351  	50.058412 
706.958258  	50.310813 
708.395165  	50.522067 
709.832072  	50.731249 
711.268979  	50.953026 
712.705886  	51.162047 
714.142793  	51.365538 
715.579700  	51.572985 
717.016607  	51.777986 
718.453514  	52.002498 
719.890421  	52.241218 
721.327328  	52.448495 
722.764236  	52.638959 
724.201143  	52.842199 
725.638050  	53.023111 
727.074957  	53.220580 
728.511864  	53.474802 
729.948771  	53.704008 
731.385678  	53.940038 
732.822585  	54.189362 
734.259492  	54.374566 
735.696399  	54.595505 
737.133306  	54.890350 
738.570213  	55.123763 
740.007120  	55.315650 
741.444027  	55.566601 
742.880934  	55.833193 
744.317841  	56.048106 
745.754748  	56.266540 
747.191655  	56.525200 
748.628562  	56.737306 
750.065469  	56.922414 
751.502376  	57.174518 
752.939283  	57.430254 
754.376190  	57.660703 
755.813097  	57.914891 
757.250004  	58.143814 
758.686911  	58.351082 
760.123818  	58.587286 
761.560725  	58.822660 
762.997632  	59.077001 
764.434539  	59.383470 
765.871446  	59.666006 
767.308353  	59.866791 
768.745260  	60.054350 
770.182167  	60.317572 
771.619075  	60.614031 
773.055982  	60.828108 
774.492889  	60.994636 
775.929796  	61.251705 
777.366703  	61.564300 
778.803610  	61.799365 
780.240517  	61.995883 
781.677424  	62.223377 
783.114331  	62.425434 
784.551238  	62.638488 
785.988145  	62.952176 
787.425052  	63.275631 
788.861959  	63.539072 
790.298866  	63.803897 
791.735773  	64.053101 
793.172680  	64.255748 
794.609587  	64.478108 
796.046494  	64.724289 
797.483401  	64.960422 
798.920308  	65.224016 
800.357215  	65.500939 
801.794122  	65.750475 
803.231029  	66.012418 
804.667936  	66.291774 
806.104843  	66.571696 
807.541750  	66.866098 
808.978657  	67.107114 
810.415564  	67.288413 
811.852471  	67.509541 
813.289378  	67.757198 
814.726285  	67.999281 
816.163192  	68.253126 
817.600099  	68.496177 
819.037006  	68.758144 
820.473913  	69.062979 
821.910821  	69.336147 
823.347728  	69.567953 
824.784635  	69.821524 
826.221542  	70.091290 
827.658449  	70.340041 
829.095356  	70.595498 
830.532263  	70.851572 
831.969170  	71.072527 
833.406077  	71.349697 
834.842984  	71.675220 
836.279891  	71.909773 
837.716798  	72.131721 
839.153705  	72.398420 
840.590612  	72.636078 
842.027519  	72.907741 
843.464426  	73.171779 
844.901333  	73.364968 
846.338240  	73.637056 
847.775147  	73.966314 
849.212054  	74.228794 
850.648961  	74.471588 
852.085868  	74.732358 
853.522775  	75.001997 
854.959682  	75.248973 
856.396589  	75.478865 
857.833496  	75.728471 
859.270403  	75.946266 
860.707310  	76.164213 
862.144217  	76.413075 
863.581124  	76.620923 
865.018031  	76.875352 
866.454938  	77.186604 
867.891845  	77.423279 
869.328752  	77.642170 
870.765660  	77.874185 
872.202567  	78.088495 
873.639474  	78.315237 
875.076381  	78.529194 
876.513288  	78.753157 
877.950195  	78.990845 
879.387102  	79.214262 
880.824009  	79.466892 
882.260916  	79.681557 
883.697823  	79.878214 
885.134730  	80.157938 
886.571637  	80.384207 
888.008544  	80.544115 
889.445451  	80.757160 
890.882358  	80.975069 
892.319265  	81.187658 
893.756172  	81.388804 
895.193079  	81.563531 
896.629986  	81.747445 
898.066893  	81.919118 
899.503800  	82.144581 
900.940707  	82.396905 
902.377614  	82.528006 
903.814521  	82.660490 
905.251428  	82.859984 
906.688335  	83.030870 
908.125242  	83.222473 
909.562149  	83.399710 
910.999056  	83.541026 
912.435963  	83.735366 
913.872870  	83.918002 
915.309777  	84.065179 
916.746684  	84.224867 
918.183591  	84.377369 
919.620498  	84.538039 
921.057406  	84.696269 
922.494313  	84.853230 
923.931220  	85.014916 
925.368127  	85.130050 
926.805034  	85.262672 
928.241941  	85.447949 
929.678848  	85.606366 
931.115755  	85.750367 
932.552662  	85.899352 
933.989569  	86.039007 
935.426476  	86.155836 
936.863383  	86.248383 
938.300290  	86.370845 
939.737197  	86.490060 
941.174104  	86.585424 
942.611011  	86.711553 
944.047918  	86.818639 
945.484825  	86.939020 
946.921732  	87.097576 
948.358639  	87.181496 
949.795546  	87.259378 
951.232453  	87.366588 
952.669360  	87.431612 
954.106267  	87.539643 
955.543174  	87.665583 
956.980081  	87.764161 
958.416988  	87.900709 
959.853895  	87.996435 
961.290802  	88.058952 
962.727709  	88.153513 
964.164616  	88.209293 
965.601523  	88.266805 
967.038430  	88.356547 
968.475337  	88.431256 
969.912244  	88.512735 
971.349152  	88.572589 
972.786059  	88.627099 
974.222966  	88.717854 
975.659873  	88.787496 
977.096780  	88.849970 
978.533687  	88.922297 
979.970594  	88.974261 
981.407501  	89.020499 
982.844408  	89.063933 
984.281315  	89.138215 
985.718222  	89.233708 
987.155129  	89.285944 
988.592036  	89.333259 
990.028943  	89.394455 
991.465850  	89.459316 
992.902757  	89.524266 
994.339664  	89.545446 
995.776571  	89.573723 
997.213478  	89.616658 
998.650385  	89.627359 
1000.087292  	89.685307 
1001.524199  	89.750746 
1002.961106  	89.760981 
1004.398013  	89.795679 
1005.834920  	89.824848 
1007.271827  	89.844596 
1008.708734  	89.891106 
1010.145641  	89.915208 
1011.582548  	89.956679 
1013.019455  	89.994927 
1014.456362  	89.999610 
1015.893269  	90.061677 
1017.330176  	90.107760 
1018.767083  	90.104820 
1020.203991  	90.149469 
1021.640898  	90.185782 
1023.077805  	90.204193 
1024.514712  	90.228724 
1025.951619  	90.233046 
1027.388526  	90.273644 
1028.825433  	90.310420 
1030.262340  	90.315999 
1031.699247  	90.355525 
1033.136154  	90.358907 
1034.573061  	90.337284 
1036.009968  	90.372385 
1037.446875  	90.408201 
1038.883782  	90.431254 
1040.320689  	90.446761 
1041.757596  	90.447214 
1043.194503  	90.467972 
1044.631410  	90.504509 
1046.068317  	90.558527 
1047.505224  	90.595769 
1048.942131  	90.603245 
1050.379038  	90.656595 
1051.815945  	90.705593 
1053.252852  	90.728723 
1054.689759  	90.777391 
1056.126666  	90.785350 
1057.563573  	90.799206 
1059.000480  	90.851355 
1060.437387  	90.852724 
1061.874294  	90.868573 
1063.311201  	90.902349 
1064.748108  	90.911267 
1066.185015  	90.949521 
1067.621922  	90.953468 
1069.058829  	90.944153 
1070.495737  	90.976258 
1071.932644  	90.966332 
1073.369551  	90.980824 
1074.806458  	91.031712 
1076.243365  	91.022186 
1077.680272  	91.009793 
1079.117179  	90.989417 
1080.554086  	90.977044 
1081.990993  	91.036430 
1083.427900  	91.071504 
1084.864807  	91.081600 
1086.301714  	91.099121 
1087.738621  	91.073574 
1089.175528  	91.068074 
1090.612435  	91.098854 
1092.049342  	91.122363 
1093.486249  	91.135485 
1094.923156  	91.123175 
1096.360063  	91.125942 
1097.796970  	91.113552 
1099.233877  	91.065151 
1100.670784  	91.088050 
1102.107691  	91.143673 
1103.544598  	91.179133 
1104.981505  	91.212878 
1106.418412  	91.188588 
1107.855319  	91.177667 
1109.292226  	91.203846 
1110.729133  	91.176342 
1112.166040  	91.182037 
1113.602947  	91.230628 
1115.039854  	91.245314 
1116.476761  	91.261731 
1117.913668  	91.252629 
1119.350575  	91.232120 
1120.787483  	91.246791 
1122.224390  	91.270102 
1123.661297  	91.321273 
1125.098204  	91.333353 
1126.535111  	91.282979 
1127.972018  	91.292522 
1129.408925  	91.317985 
1130.845832  	91.315156 
1132.282739  	91.335165 
1133.719646  	91.336517 
1135.156553  	91.334350 
1136.593460  	91.343081 
1138.030367  	91.327656 
1139.467274  	91.319085 
1140.904181  	91.309332 
1142.341088  	91.314782 
1143.777995  	91.346382 
1145.214902  	91.335706 
1146.651809  	91.325638 
1148.088716  	91.338454 
1149.525623  	91.328176 
1150.962530  	91.334081 
1152.399437  	91.337574 
1153.836344  	91.326509 
1155.273251  	91.332438 
1156.710158  	91.317687 
1158.147065  	91.315485 
1159.583972  	91.332576 
1161.020879  	91.315396 
1162.457786  	91.315731 
1163.894693  	91.323539 
1165.331600  	91.308602 
1166.768507  	91.315899 
1168.205414  	91.311706 
1169.642322  	91.294459 
1171.079229  	91.296752 
1172.516136  	91.296855 
1173.953043  	91.310644 
1175.389950  	91.315758 
1176.826857  	91.294259 
1178.263764  	91.291430 
1179.700671  	91.288519 
1181.137578  	91.277544 
1182.574485  	91.270309 
1184.011392  	91.259592 
1185.448299  	91.264162 
1186.885206  	91.249089 
1188.322113  	91.220983 
1189.759020  	91.238971 
1191.195927  	91.255970 
1192.632834  	91.251919 
1194.069741  	91.250514 
1195.506648  	91.253507 
1196.943555  	91.276903 
1198.380462  	91.266837 
1199.817369  	91.233606 
1201.254276  	91.243799 
1202.691183  	91.230883 
1204.128090  	91.207619 
1205.564997  	91.221241 
1207.001904  	91.211551 
1208.438811  	91.208187 
1209.875718  	91.214436 
1211.312625  	91.199764 
1212.749532  	91.218096 
1214.186439  	91.223460 
1215.623346  	91.204617 
1217.060253  	91.224068 
1218.497160  	91.227792 
1219.934068  	91.215500 
1221.370975  	91.217625 
1222.807882  	91.217232 
1224.244789  	91.236154 
1225.681696  	91.229226 
1227.118603  	91.202128 
1228.555510  	91.221651 
1229.992417  	91.226837 
1231.429324  	91.219021 
1232.866231  	91.231630 
1234.303138  	91.217141 
1235.740045  	91.206753 
1237.176952  	91.201232 
1238.613859  	91.175565 
1240.050766  	91.172543 
1241.487673  	91.171657 
1242.924580  	91.174059 
1244.361487  	91.193529 
1245.798394  	91.182979 
1247.235301  	91.167161 
1248.672208  	91.150575 
1250.109115  	91.123318 
1251.546022  	91.142060 
1252.982929  	91.175454 
1254.419836  	91.173070 
1255.856743  	91.147006 
1257.293650  	91.119695 
1258.730557  	91.132139 
1260.167464  	91.149921 
1261.604371  	91.147346 
1263.041278  	91.165170 
1264.478185  	91.160247 
1265.915092  	91.138405 
1267.351999  	91.141731 
1268.788907  	91.126029 
1270.225814  	91.116217 
1271.662721  	91.127603 
1273.099628  	91.118295 
1274.536535  	91.108837 
1275.973442  	91.095742 
1277.410349  	91.088298 
1278.847256  	91.096189 
1280.284163  	91.081203 
1281.721070  	91.082178 
1283.157977  	91.098925 
1284.594884  	91.097047 
1286.031791  	91.122913 
1287.468698  	91.136319 
1288.905605  	91.110343 
1290.342512  	91.110210 
1291.779419  	91.123134 
1293.216326  	91.142819 
1294.653233  	91.155381 
1296.090140  	91.139889 
1297.527047  	91.153834 
1298.963954  	91.173863 
1300.400861  	91.172096 
1301.837768  	91.190618 
1303.274675  	91.201371 
1304.711582  	91.204539 
1306.148489  	91.207450 
1307.585396  	91.205053 
1309.022303  	91.216331 
1310.459210  	91.218295 
1311.896117  	91.212837 
1313.333024  	91.228594 
1314.769931  	91.222086 
1316.206838  	91.220170 
1317.643745  	91.236020 
1319.080653  	91.236171 
1320.517560  	91.244031 
1321.954467  	91.247876 
1323.391374  	91.241585 
1324.828281  	91.247032 
1326.265188  	91.248138 
1327.702095  	91.240014 
1329.139002  	91.232533 
1330.575909  	91.211891 
1332.012816  	91.237905 
1333.449723  	91.255676 
1334.886630  	91.217985 
1336.323537  	91.197523 
1337.760444  	91.182034 
1339.197351  	91.167180 
1340.634258  	91.198753 
1342.071165  	91.210433 
1343.508072  	91.201582 
1344.944979  	91.192155 
1346.381886  	91.174446 
1347.818793  	91.167665 
1349.255700  	91.154868 
1350.692607  	91.133378 
1352.129514  	91.129968 
1353.566421  	91.124488 
1355.003328  	91.105069 
1356.440235  	91.089323 
1357.877142  	91.076847 
1359.314049  	91.066636 
1360.750956  	91.035746 
1362.187863  	91.007988 
1363.624770  	91.032934 
1365.061677  	91.033186 
1366.498584  	90.994303 
1367.935491  	90.956189 
1369.372399  	90.904116 
1370.809306  	90.877190 
1372.246213  	90.855710 
1373.683120  	90.808142 
1375.120027  	90.780352 
1376.556934  	90.730210 
1377.993841  	90.693169 
1379.430748  	90.702073 
1380.867655  	90.677722 
1382.304562  	90.655655 
1383.741469  	90.626942 
1385.178376  	90.558314 
1386.615283  	90.550730 
1388.052190  	90.594272 
1389.489097  	90.608170 
1390.926004  	90.614989 
1392.362911  	90.584841 
1393.799818  	90.548743 
1395.236725  	90.588679 
1396.673632  	90.631224 
1398.110539  	90.656635 
1399.547446  	90.693492 
1400.984353  	90.707600 
1402.421260  	90.707406 
1403.858167  	90.698402 
1405.295074  	90.726300 
1406.731981  	90.772698 
1408.168888  	90.771659 
1409.605795  	90.781329 
1411.042702  	90.809083 
1412.479609  	90.826055 
1413.916516  	90.859743 
1415.353423  	90.877797 
1416.790330  	90.881313 
1418.227238  	90.880553 
1419.664145  	90.898700 
1421.101052  	90.948034 
1422.537959  	90.959116 
1423.974866  	90.953518 
1425.411773  	90.974969 
1426.848680  	90.978594 
1428.285587  	90.968470 
1429.722494  	90.981302 
1431.159401  	90.992328 
1432.596308  	91.005762 
1434.033215  	90.996994 
1435.470122  	90.967567 
1436.907029  	90.984580 
1438.343936  	90.992724 
1439.780843  	90.986401 
1441.217750  	91.004190 
1442.654657  	91.008258 
1444.091564  	90.993276 
1445.528471  	90.981636 
1446.965378  	90.962209 
1448.402285  	90.996898 
1449.839192  	91.015664 
1451.276099  	91.002782 
1452.713006  	91.000679 
1454.149913  	90.945233 
1455.586820  	90.930963 
1457.023727  	91.025722 
1458.460634  	90.997989 
1459.897541  	90.971564 
1461.334448  	90.948390 
1462.771355  	90.907957 
1464.208262  	90.926498 
1465.645169  	90.959336 
1467.082076  	90.950127 
1468.518984  	90.917540 
1469.955891  	90.845444 
1471.392798  	90.789747 
1472.829705  	90.809760 
1474.266612  	90.862610 
1475.703519  	90.885139 
1477.140426  	90.824611 
1478.577333  	90.768126 
1480.014240  	90.749141 
1481.451147  	90.733846 
1482.888054  	90.773330 
1484.324961  	90.773851 
1485.761868  	90.699564 
1487.198775  	90.648806 
1488.635682  	90.594732 
1490.072589  	90.578971 
1491.509496  	90.596767 
1492.946403  	90.532778 
1494.383310  	90.466845 
1495.820217  	90.413889 
1497.257124  	90.359753 
1498.694031  	90.391138 
1500.130938  	90.380212 
1501.567845  	90.306694 
1503.004752  	90.249848 
1504.441659  	90.173004 
1505.878566  	90.080860 
1507.315473  	90.093229 
1508.752380  	90.105792 
1510.189287  	90.061466 
1511.626194  	89.971827 
1513.063101  	89.910307 
1514.500008  	89.872291 
1515.936915  	89.774848 
1517.373822  	89.769964 
1518.810730  	89.780090 
1520.247637  	89.676538 
1521.684544  	89.626165 
