##TITLE=No Description
##DATA TYPE=INFRARED SPECTRUM
##XUNITS=1/CM
##YUNITS=%T
399.460154  	50.288204 
400.897061  	48.229953 
402.333968  	47.578954 
403.770875  	47.244062 
405.207782  	47.072999 
406.644689  	47.931112 
408.081596  	48.172546 
409.518503  	48.535716 
410.955410  	48.328419 
412.392317  	47.565159 
413.829224  	47.962667 
415.266131  	48.047952 
416.703038  	48.292927 
418.139945  	48.591458 
419.576852  	46.895899 
421.013759  	48.086858 
422.450666  	48.724243 
423.887574  	47.922306 
425.324481  	48.871184 
426.761388  	48.903105 
428.198295  	47.694126 
429.635202  	48.118005 
431.072109  	48.540815 
432.509016  	48.470358 
433.945923  	48.722950 
435.382830  	48.562535 
436.819737  	48.566426 
438.256644  	48.407204 
439.693551  	48.019088 
441.130458  	48.176746 
442.567365  	48.392213 
444.004272  	48.994235 
445.441179  	49.263167 
446.878086  	48.911727 
448.314993  	49.041141 
449.751900  	48.778826 
451.188807  	48.414494 
452.625714  	48.711362 
454.062621  	48.207899 
455.499528  	48.045761 
456.936435  	48.885232 
458.373342  	49.059778 
459.810249  	49.232816 
461.247156  	49.399430 
462.684063  	49.129440 
464.120970  	49.028042 
465.557877  	48.717283 
466.994784  	48.682450 
468.431691  	48.912806 
469.868598  	48.431386 
471.305505  	48.431909 
472.742413  	49.078233 
474.179320  	48.827719 
475.616227  	48.510692 
477.053134  	48.730198 
478.490041  	49.375505 
479.926948  	49.727082 
481.363855  	49.482640 
482.800762  	49.393893 
484.237669  	49.416332 
485.674576  	49.351031 
487.111483  	49.332562 
488.548390  	49.154767 
489.985297  	49.233883 
491.422204  	49.502177 
492.859111  	49.394877 
494.296018  	49.324929 
495.732925  	49.382181 
497.169832  	49.654699 
498.606739  	50.016804 
500.043646  	49.741127 
501.480553  	49.526907 
502.917460  	49.832909 
504.354367  	49.808883 
505.791274  	49.854185 
507.228181  	50.025408 
508.665088  	49.985779 
510.101995  	50.141025 
511.538902  	50.207410 
512.975809  	50.009783 
514.412716  	50.065969 
515.849623  	50.341920 
517.286530  	50.529603 
518.723437  	50.400436 
520.160344  	50.338817 
521.597251  	50.604709 
523.034159  	50.672512 
524.471066  	50.523976 
525.907973  	50.453719 
527.344880  	50.423095 
528.781787  	50.475485 
530.218694  	50.516974 
531.655601  	50.617598 
533.092508  	50.789652 
534.529415  	50.687932 
535.966322  	50.654890 
537.403229  	50.934854 
538.840136  	51.020353 
540.277043  	50.947710 
541.713950  	50.959715 
543.150857  	51.034906 
544.587764  	51.146213 
546.024671  	51.210341 
547.461578  	51.330182 
548.898485  	51.406434 
550.335392  	51.329982 
551.772299  	51.384572 
553.209206  	51.469390 
554.646113  	51.496128 
556.083020  	51.569887 
557.519927  	51.561960 
558.956834  	51.744490 
560.393741  	52.045241 
561.830648  	51.979700 
563.267555  	51.894115 
564.704462  	51.982603 
566.141369  	52.044699 
567.578276  	52.191191 
569.015183  	52.285828 
570.452090  	52.328971 
571.888997  	52.447725 
573.325905  	52.492583 
574.762812  	52.583204 
576.199719  	52.707675 
577.636626  	52.754985 
579.073533  	52.917747 
580.510440  	53.040400 
581.947347  	53.046646 
583.384254  	53.135068 
584.821161  	53.205675 
586.258068  	53.259108 
587.694975  	53.299911 
589.131882  	53.303425 
590.568789  	53.421758 
592.005696  	53.504806 
593.442603  	53.543914 
594.879510  	53.710603 
596.316417  	53.810767 
597.753324  	53.908728 
599.190231  	54.052197 
600.627138  	54.035158 
602.064045  	54.082055 
603.500952  	54.244701 
604.937859  	54.326422 
606.374766  	54.413905 
607.811673  	54.502454 
609.248580  	54.604068 
610.685487  	54.759238 
612.122394  	54.823152 
613.559301  	54.876128 
614.996208  	55.020461 
616.433115  	55.183586 
617.870022  	55.343954 
619.306929  	55.425437 
620.743836  	55.449849 
622.180744  	55.540786 
623.617651  	55.659397 
625.054558  	55.787465 
626.491465  	55.873710 
627.928372  	55.874412 
629.365279  	55.936897 
630.802186  	56.087383 
632.239093  	56.233834 
633.676000  	56.372493 
635.112907  	56.473281 
636.549814  	56.556145 
637.986721  	56.668848 
639.423628  	56.758783 
640.860535  	56.845527 
642.297442  	56.951493 
643.734349  	57.035719 
645.171256  	57.133499 
646.608163  	57.280988 
648.045070  	57.420438 
649.481977  	57.569084 
650.918884  	57.710246 
652.355791  	57.840468 
653.792698  	57.978838 
655.229605  	58.140531 
656.666512  	58.262585 
658.103419  	58.345416 
659.540326  	58.479851 
660.977233  	58.663173 
662.414140  	58.786259 
663.851047  	58.875869 
665.287954  	59.009827 
666.724861  	59.152068 
668.161768  	59.253331 
669.598675  	59.362406 
671.035582  	59.497507 
672.472490  	59.621381 
673.909397  	59.736495 
675.346304  	59.865561 
676.783211  	60.026484 
678.220118  	60.184295 
679.657025  	60.305891 
681.093932  	60.403377 
682.530839  	60.551607 
683.967746  	60.729571 
685.404653  	60.892142 
686.841560  	61.032006 
688.278467  	61.140069 
689.715374  	61.261398 
691.152281  	61.400533 
692.589188  	61.540412 
694.026095  	61.718214 
695.463002  	61.859258 
696.899909  	61.976977 
698.336816  	62.127788 
699.773723  	62.266883 
701.210630  	62.377213 
702.647537  	62.489453 
704.084444  	62.590138 
705.521351  	62.773847 
706.958258  	63.004680 
708.395165  	63.137587 
709.832072  	63.281655 
711.268979  	63.451900 
712.705886  	63.602440 
714.142793  	63.754265 
715.579700  	63.892160 
717.016607  	64.034702 
718.453514  	64.192698 
719.890421  	64.357631 
721.327328  	64.549812 
722.764236  	64.734396 
724.201143  	64.902124 
725.638050  	65.072891 
727.074957  	65.192045 
728.511864  	65.277256 
729.948771  	65.417649 
731.385678  	65.602232 
732.822585  	65.771962 
734.259492  	65.892514 
735.696399  	66.067329 
737.133306  	66.317179 
738.570213  	66.463240 
740.007120  	66.588505 
741.444027  	66.800430 
742.880934  	66.943225 
744.317841  	67.064306 
745.754748  	67.231017 
747.191655  	67.375703 
748.628562  	67.579954 
750.065469  	67.783859 
751.502376  	67.906492 
752.939283  	68.077864 
754.376190  	68.255882 
755.813097  	68.392887 
757.250004  	68.548512 
758.686911  	68.677855 
760.123818  	68.850599 
761.560725  	69.083827 
762.997632  	69.237687 
764.434539  	69.394650 
765.871446  	69.615431 
767.308353  	69.793304 
768.745260  	69.957794 
770.182167  	70.141927 
771.619075  	70.311374 
773.055982  	70.477189 
774.492889  	70.635868 
775.929796  	70.796413 
777.366703  	70.973246 
778.803610  	71.163451 
780.240517  	71.355746 
781.677424  	71.490695 
783.114331  	71.599912 
784.551238  	71.794962 
785.988145  	72.038727 
787.425052  	72.233591 
788.861959  	72.384963 
790.298866  	72.529693 
791.735773  	72.692201 
793.172680  	72.875876 
794.609587  	73.047521 
796.046494  	73.204621 
797.483401  	73.401922 
798.920308  	73.622237 
800.357215  	73.799063 
801.794122  	73.971823 
803.231029  	74.155770 
804.667936  	74.315235 
806.104843  	74.525466 
807.541750  	74.787384 
808.978657  	74.976552 
810.415564  	75.089457 
811.852471  	75.210907 
813.289378  	75.407302 
814.726285  	75.653740 
816.163192  	75.832934 
817.600099  	75.956589 
819.037006  	76.122639 
820.473913  	76.321560 
821.910821  	76.501465 
823.347728  	76.653511 
824.784635  	76.833286 
826.221542  	77.043311 
827.658449  	77.211755 
829.095356  	77.399598 
830.532263  	77.639818 
831.969170  	77.834716 
833.406077  	78.005191 
834.842984  	78.181280 
836.279891  	78.339750 
837.716798  	78.514622 
839.153705  	78.668892 
840.590612  	78.800404 
842.027519  	78.976876 
843.464426  	79.161930 
844.901333  	79.346182 
846.338240  	79.548867 
847.775147  	79.743661 
849.212054  	79.938994 
850.648961  	80.121997 
852.085868  	80.301774 
853.522775  	80.482845 
854.959682  	80.618001 
856.396589  	80.776383 
857.833496  	80.968415 
859.270403  	81.120684 
860.707310  	81.303300 
862.144217  	81.490267 
863.581124  	81.630264 
865.018031  	81.815618 
866.454938  	81.995851 
867.891845  	82.135690 
869.328752  	82.305854 
870.765660  	82.459777 
872.202567  	82.594786 
873.639474  	82.739371 
875.076381  	82.899153 
876.513288  	83.102497 
877.950195  	83.257363 
879.387102  	83.375074 
880.824009  	83.575660 
882.260916  	83.769386 
883.697823  	83.900634 
885.134730  	84.028016 
886.571637  	84.166286 
888.008544  	84.329173 
889.445451  	84.465127 
890.882358  	84.589399 
892.319265  	84.750956 
893.756172  	84.869183 
895.193079  	84.985803 
896.629986  	85.143716 
898.066893  	85.283200 
899.503800  	85.457386 
900.940707  	85.599659 
902.377614  	85.659247 
903.814521  	85.777186 
905.251428  	85.903732 
906.688335  	85.994681 
908.125242  	86.124984 
909.562149  	86.246352 
910.999056  	86.382128 
912.435963  	86.521704 
913.872870  	86.596037 
915.309777  	86.712060 
916.746684  	86.853395 
918.183591  	86.945202 
919.620498  	87.068540 
921.057406  	87.194722 
922.494313  	87.286607 
923.931220  	87.388732 
925.368127  	87.488820 
926.805034  	87.593789 
928.241941  	87.701947 
929.678848  	87.808533 
931.115755  	87.913847 
932.552662  	87.994946 
933.989569  	88.103339 
935.426476  	88.209067 
936.863383  	88.255660 
938.300290  	88.348436 
939.737197  	88.466306 
941.174104  	88.533303 
942.611011  	88.603560 
944.047918  	88.669216 
945.484825  	88.756646 
946.921732  	88.872812 
948.358639  	88.928087 
949.795546  	88.977458 
951.232453  	89.060909 
952.669360  	89.136911 
954.106267  	89.223114 
955.543174  	89.290720 
956.980081  	89.371500 
958.416988  	89.495792 
959.853895  	89.562471 
961.290802  	89.586553 
962.727709  	89.614055 
964.164616  	89.645911 
965.601523  	89.733436 
967.038430  	89.813309 
968.475337  	89.846439 
969.912244  	89.902468 
971.349152  	89.956798 
972.786059  	90.013004 
974.222966  	90.089240 
975.659873  	90.139326 
977.096780  	90.181799 
978.533687  	90.231879 
979.970594  	90.287354 
981.407501  	90.338943 
982.844408  	90.356434 
984.281315  	90.398253 
985.718222  	90.471640 
987.155129  	90.510838 
988.592036  	90.546110 
990.028943  	90.590687 
991.465850  	90.637933 
992.902757  	90.684816 
994.339664  	90.697799 
995.776571  	90.724914 
997.213478  	90.769607 
998.650385  	90.786192 
1000.087292  	90.819138 
1001.524199  	90.841227 
1002.961106  	90.835332 
1004.398013  	90.862321 
1005.834920  	90.889275 
1007.271827  	90.917026 
1008.708734  	90.964883 
1010.145641  	90.993048 
1011.582548  	91.031903 
1013.019455  	91.073480 
1014.456362  	91.096402 
1015.893269  	91.140093 
1017.330176  	91.171805 
1018.767083  	91.200681 
1020.203991  	91.258359 
1021.640898  	91.289160 
1023.077805  	91.300399 
1024.514712  	91.305053 
1025.951619  	91.297251 
1027.388526  	91.311698 
1028.825433  	91.311406 
1030.262340  	91.287810 
1031.699247  	91.293242 
1033.136154  	91.303428 
1034.573061  	91.292762 
1036.009968  	91.281086 
1037.446875  	91.302817 
1038.883782  	91.344974 
1040.320689  	91.355034 
1041.757596  	91.373982 
1043.194503  	91.413039 
1044.631410  	91.437585 
1046.068317  	91.498459 
1047.505224  	91.545492 
1048.942131  	91.531652 
1050.379038  	91.557496 
1051.815945  	91.619280 
1053.252852  	91.671723 
1054.689759  	91.702922 
1056.126666  	91.702234 
1057.563573  	91.747918 
1059.000480  	91.797090 
1060.437387  	91.775018 
1061.874294  	91.786177 
1063.311201  	91.819281 
1064.748108  	91.826198 
1066.185015  	91.849689 
1067.621922  	91.842170 
1069.058829  	91.833544 
1070.495737  	91.870734 
1071.932644  	91.876513 
1073.369551  	91.870498 
1074.806458  	91.892440 
1076.243365  	91.916560 
1077.680272  	91.919082 
1079.117179  	91.873179 
1080.554086  	91.856596 
1081.990993  	91.910731 
1083.427900  	91.948131 
1084.864807  	91.961121 
1086.301714  	91.947709 
1087.738621  	91.900706 
1089.175528  	91.892929 
1090.612435  	91.926974 
1092.049342  	91.949301 
1093.486249  	91.933479 
1094.923156  	91.902465 
1096.360063  	91.908842 
1097.796970  	91.913301 
1099.233877  	91.900822 
1100.670784  	91.921346 
1102.107691  	91.944447 
1103.544598  	91.959248 
1104.981505  	91.973290 
1106.418412  	91.977441 
1107.855319  	92.000720 
1109.292226  	91.998056 
1110.729133  	91.970383 
1112.166040  	92.001214 
1113.602947  	92.037666 
1115.039854  	92.037113 
1116.476761  	92.026512 
1117.913668  	92.005471 
1119.350575  	92.021073 
1120.787483  	92.049441 
1122.224390  	92.046808 
1123.661297  	92.070740 
1125.098204  	92.095327 
1126.535111  	92.097946 
1127.972018  	92.119256 
1129.408925  	92.122762 
1130.845832  	92.110397 
1132.282739  	92.107813 
1133.719646  	92.108806 
1135.156553  	92.134343 
1136.593460  	92.148106 
1138.030367  	92.125712 
1139.467274  	92.096444 
1140.904181  	92.070035 
1142.341088  	92.096507 
1143.777995  	92.145123 
1145.214902  	92.130539 
1146.651809  	92.112749 
1148.088716  	92.117607 
1149.525623  	92.105128 
1150.962530  	92.105664 
1152.399437  	92.117273 
1153.836344  	92.119999 
1155.273251  	92.114304 
1156.710158  	92.103794 
1158.147065  	92.114164 
1159.583972  	92.117418 
1161.020879  	92.099675 
1162.457786  	92.097196 
1163.894693  	92.092901 
1165.331600  	92.103954 
1166.768507  	92.136699 
1168.205414  	92.123678 
1169.642322  	92.095783 
1171.079229  	92.093405 
1172.516136  	92.077761 
1173.953043  	92.068599 
1175.389950  	92.090140 
1176.826857  	92.109053 
1178.263764  	92.103683 
1179.700671  	92.088713 
1181.137578  	92.089324 
1182.574485  	92.092212 
1184.011392  	92.090547 
1185.448299  	92.087299 
1186.885206  	92.056915 
1188.322113  	92.030915 
1189.759020  	92.034123 
1191.195927  	92.030200 
1192.632834  	92.035061 
1194.069741  	92.047850 
1195.506648  	92.036707 
1196.943555  	92.029912 
1198.380462  	92.033425 
1199.817369  	92.036459 
1201.254276  	92.042371 
1202.691183  	92.030843 
1204.128090  	92.018273 
1205.564997  	92.023347 
1207.001904  	92.028079 
1208.438811  	92.031228 
1209.875718  	92.023725 
1211.312625  	92.013631 
1212.749532  	92.026955 
1214.186439  	92.037879 
1215.623346  	92.024470 
1217.060253  	92.010710 
1218.497160  	92.023716 
1219.934068  	92.045104 
1221.370975  	92.037186 
1222.807882  	92.029006 
1224.244789  	92.036846 
1225.681696  	92.029971 
1227.118603  	92.028907 
1228.555510  	92.029511 
1229.992417  	92.015181 
1231.429324  	92.024688 
1232.866231  	92.039537 
1234.303138  	92.035478 
1235.740045  	92.034087 
1237.176952  	92.017924 
1238.613859  	91.994750 
1240.050766  	91.989646 
1241.487673  	91.994667 
1242.924580  	92.009754 
1244.361487  	92.011074 
1245.798394  	91.991596 
1247.235301  	91.982294 
1248.672208  	91.974979 
1250.109115  	91.965903 
1251.546022  	91.966476 
1252.982929  	91.977612 
1254.419836  	91.993414 
1255.856743  	91.983351 
1257.293650  	91.962768 
1258.730557  	91.960381 
1260.167464  	91.957640 
1261.604371  	91.976750 
1263.041278  	91.998778 
1264.478185  	91.970698 
1265.915092  	91.950322 
1267.351999  	91.965077 
1268.788907  	91.967683 
1270.225814  	91.954893 
1271.662721  	91.939493 
1273.099628  	91.936670 
1274.536535  	91.923474 
1275.973442  	91.891944 
1277.410349  	91.904354 
1278.847256  	91.928208 
1280.284163  	91.919382 
1281.721070  	91.926127 
1283.157977  	91.929680 
1284.594884  	91.931265 
1286.031791  	91.956404 
1287.468698  	91.947495 
1288.905605  	91.924673 
1290.342512  	91.927513 
1291.779419  	91.927347 
1293.216326  	91.939196 
1294.653233  	91.947711 
1296.090140  	91.947297 
1297.527047  	91.971190 
1298.963954  	91.975567 
1300.400861  	91.964929 
1301.837768  	91.979979 
1303.274675  	91.993535 
1304.711582  	91.999723 
1306.148489  	92.010375 
1307.585396  	92.006814 
1309.022303  	92.012320 
1310.459210  	92.009878 
1311.896117  	92.007797 
1313.333024  	92.009124 
1314.769931  	92.000791 
1316.206838  	91.999887 
1317.643745  	92.016254 
1319.080653  	92.015267 
1320.517560  	92.013791 
1321.954467  	92.019018 
1323.391374  	92.023326 
1324.828281  	92.036410 
1326.265188  	92.025073 
1327.702095  	92.025529 
1329.139002  	92.037220 
1330.575909  	92.035334 
1332.012816  	92.047830 
1333.449723  	92.051867 
1334.886630  	92.019071 
1336.323537  	91.995833 
1337.760444  	91.981965 
1339.197351  	91.969615 
1340.634258  	91.965695 
1342.071165  	91.964842 
1343.508072  	91.982884 
1344.944979  	91.990927 
1346.381886  	91.982851 
1347.818793  	91.988595 
1349.255700  	91.962456 
1350.692607  	91.921466 
1352.129514  	91.931047 
1353.566421  	91.944487 
1355.003328  	91.921172 
1356.440235  	91.892017 
1357.877142  	91.890442 
1359.314049  	91.904176 
1360.750956  	91.895775 
1362.187863  	91.878618 
1363.624770  	91.872167 
1365.061677  	91.860203 
1366.498584  	91.836438 
1367.935491  	91.780043 
1369.372399  	91.734463 
1370.809306  	91.749372 
1372.246213  	91.757145 
1373.683120  	91.710765 
1375.120027  	91.620031 
1376.556934  	91.573989 
1377.993841  	91.584189 
1379.430748  	91.593236 
1380.867655  	91.607880 
1382.304562  	91.621971 
1383.741469  	91.568982 
1385.178376  	91.530416 
1386.615283  	91.541890 
1388.052190  	91.520750 
1389.489097  	91.526420 
1390.926004  	91.538121 
1392.362911  	91.511979 
1393.799818  	91.488597 
1395.236725  	91.475287 
1396.673632  	91.524276 
1398.110539  	91.620153 
1399.547446  	91.636372 
1400.984353  	91.602138 
1402.421260  	91.626617 
1403.858167  	91.632227 
1405.295074  	91.630553 
1406.731981  	91.655349 
1408.168888  	91.657255 
1409.605795  	91.655173 
1411.042702  	91.659004 
1412.479609  	91.668832 
1413.916516  	91.728005 
1415.353423  	91.784815 
1416.790330  	91.816739 
1418.227238  	91.813083 
1419.664145  	91.736004 
1421.101052  	91.762836 
1422.537959  	91.836817 
1423.974866  	91.821685 
1425.411773  	91.771483 
1426.848680  	91.788990 
1428.285587  	91.783740 
1429.722494  	91.772827 
1431.159401  	91.783578 
1432.596308  	91.798287 
1434.033215  	91.817064 
1435.470122  	91.836984 
1436.907029  	91.775865 
1438.343936  	91.718460 
1439.780843  	91.765490 
1441.217750  	91.824267 
1442.654657  	91.826488 
1444.091564  	91.798869 
1445.528471  	91.776089 
1446.965378  	91.800703 
1448.402285  	91.816489 
1449.839192  	91.837200 
1451.276099  	91.895152 
1452.713006  	91.873069 
1454.149913  	91.835036 
1455.586820  	91.965320 
1457.023727  	92.106945 
1458.460634  	91.891207 
1459.897541  	91.772709 
1461.334448  	91.724584 
1462.771355  	91.760743 
1464.208262  	91.837559 
1465.645169  	91.838374 
1467.082076  	91.846712 
1468.518984  	91.833532 
1469.955891  	91.802564 
1471.392798  	91.806746 
1472.829705  	91.711832 
1474.266612  	91.750923 
1475.703519  	91.849786 
1477.140426  	91.680376 
1478.577333  	91.553930 
1480.014240  	91.581779 
1481.451147  	91.594612 
1482.888054  	91.681884 
1484.324961  	91.758554 
1485.761868  	91.708345 
1487.198775  	91.630229 
1488.635682  	91.584984 
1490.072589  	91.563327 
1491.509496  	91.512214 
1492.946403  	91.471389 
1494.383310  	91.469647 
1495.820217  	91.421944 
1497.257124  	91.318829 
1498.694031  	91.372092 
1500.130938  	91.425005 
1501.567845  	91.386100 
1503.004752  	91.347140 
1504.441659  	91.338881 
1505.878566  	91.316081 
1507.315473  	91.138316 
1508.752380  	91.112573 
1510.189287  	91.139446 
1511.626194  	91.048265 
1513.063101  	90.974053 
1514.500008  	91.002676 
1515.936915  	91.004002 
1517.373822  	91.009518 
1518.810730  	91.040154 
1520.247637  	91.016375 
1521.684544  	90.834008 
