##TITLE=No Description
##DATA TYPE=INFRARED SPECTRUM
##XUNITS=1/CM
##YUNITS=%T
399.460154  	42.282357 
400.897061  	41.153005 
402.333968  	41.821459 
403.770875  	41.121555 
405.207782  	40.682862 
406.644689  	40.262129 
408.081596  	38.886224 
409.518503  	39.532931 
410.955410  	39.639534 
412.392317  	39.238702 
413.829224  	40.880959 
415.266131  	40.434962 
416.703038  	40.049834 
418.139945  	42.440291 
419.576852  	40.266942 
421.013759  	38.592823 
422.450666  	38.974172 
423.887574  	39.076055 
425.324481  	40.041957 
426.761388  	40.374889 
428.198295  	40.305687 
429.635202  	40.627134 
431.072109  	40.250005 
432.509016  	40.091290 
433.945923  	39.720543 
435.382830  	39.154946 
436.819737  	40.004610 
438.256644  	40.208045 
439.693551  	40.048327 
441.130458  	40.533990 
442.567365  	40.008891 
444.004272  	39.972804 
445.441179  	40.242115 
446.878086  	39.536598 
448.314993  	39.453570 
449.751900  	39.509994 
451.188807  	39.771825 
452.625714  	40.515336 
454.062621  	40.123218 
455.499528  	39.949268 
456.936435  	39.912581 
458.373342  	39.064464 
459.810249  	39.306875 
461.247156  	39.730371 
462.684063  	40.152127 
464.120970  	40.457998 
465.557877  	39.597665 
466.994784  	39.554383 
468.431691  	39.988295 
469.868598  	39.416207 
471.305505  	39.898979 
472.742413  	40.398286 
474.179320  	39.867551 
475.616227  	40.094719 
477.053134  	39.838555 
478.490041  	39.616051 
479.926948  	40.140712 
481.363855  	39.843428 
482.800762  	39.459299 
484.237669  	39.420888 
485.674576  	39.127495 
487.111483  	39.391398 
488.548390  	39.801118 
489.985297  	40.182827 
491.422204  	40.449824 
492.859111  	39.879624 
494.296018  	39.542365 
495.732925  	39.628121 
497.169832  	39.399001 
498.606739  	39.572332 
500.043646  	39.824066 
501.480553  	40.199561 
502.917460  	41.030169 
504.354367  	40.754377 
505.791274  	39.971660 
507.228181  	40.053456 
508.665088  	40.012344 
510.101995  	39.630241 
511.538902  	40.063719 
512.975809  	40.797028 
514.412716  	40.703230 
515.849623  	40.302749 
517.286530  	40.389664 
518.723437  	40.424211 
520.160344  	40.314163 
521.597251  	40.506782 
523.034159  	40.508758 
524.471066  	40.274799 
525.907973  	40.412807 
527.344880  	40.749365 
528.781787  	40.800359 
530.218694  	40.669664 
531.655601  	40.733433 
533.092508  	40.946903 
534.529415  	40.917194 
535.966322  	40.926137 
537.403229  	41.094341 
538.840136  	41.079660 
540.277043  	41.174962 
541.713950  	41.367484 
543.150857  	41.315980 
544.587764  	41.278676 
546.024671  	41.389064 
547.461578  	41.528085 
548.898485  	41.570642 
550.335392  	41.481190 
551.772299  	41.563984 
553.209206  	41.792905 
554.646113  	41.854327 
556.083020  	41.826691 
557.519927  	41.848970 
558.956834  	41.973817 
560.393741  	42.128571 
561.830648  	42.227325 
563.267555  	42.326400 
564.704462  	42.309004 
566.141369  	42.276361 
567.578276  	42.462355 
569.015183  	42.567594 
570.452090  	42.522360 
571.888997  	42.589516 
573.325905  	42.668470 
574.762812  	42.709315 
576.199719  	42.811097 
577.636626  	42.969683 
579.073533  	43.123976 
580.510440  	43.192118 
581.947347  	43.231801 
583.384254  	43.290367 
584.821161  	43.321520 
586.258068  	43.404774 
587.694975  	43.540959 
589.131882  	43.688462 
590.568789  	43.814546 
592.005696  	43.872000 
593.442603  	44.031744 
594.879510  	44.181704 
596.316417  	44.118552 
597.753324  	44.177138 
599.190231  	44.382047 
600.627138  	44.443783 
602.064045  	44.528174 
603.500952  	44.664664 
604.937859  	44.765794 
606.374766  	44.910826 
607.811673  	45.066789 
609.248580  	45.175196 
610.685487  	45.243474 
612.122394  	45.292190 
613.559301  	45.408982 
614.996208  	45.503935 
616.433115  	45.592770 
617.870022  	45.770054 
619.306929  	45.914362 
620.743836  	46.036678 
622.180744  	46.187782 
623.617651  	46.294215 
625.054558  	46.394500 
626.491465  	46.474058 
627.928372  	46.553914 
629.365279  	46.705654 
630.802186  	46.799938 
632.239093  	46.899124 
633.676000  	47.109111 
635.112907  	47.290871 
636.549814  	47.401059 
637.986721  	47.512262 
639.423628  	47.589166 
640.860535  	47.668059 
642.297442  	47.812015 
643.734349  	48.000787 
645.171256  	48.177100 
646.608163  	48.269159 
648.045070  	48.376958 
649.481977  	48.496610 
650.918884  	48.629867 
652.355791  	48.782080 
653.792698  	48.896189 
655.229605  	49.062596 
656.666512  	49.269854 
658.103419  	49.412798 
659.540326  	49.526650 
660.977233  	49.663435 
662.414140  	49.793822 
663.851047  	49.947228 
665.287954  	50.082508 
666.724861  	50.202300 
668.161768  	50.399001 
669.598675  	50.614546 
671.035582  	50.729231 
672.472490  	50.874879 
673.909397  	51.039965 
675.346304  	51.195636 
676.783211  	51.347919 
678.220118  	51.506393 
679.657025  	51.703644 
681.093932  	51.881775 
682.530839  	52.049188 
683.967746  	52.265254 
685.404653  	52.463100 
686.841560  	52.596013 
688.278467  	52.679546 
689.715374  	52.779246 
691.152281  	52.971007 
692.589188  	53.204821 
694.026095  	53.414277 
695.463002  	53.615947 
696.899909  	53.774005 
698.336816  	53.911340 
699.773723  	54.090652 
701.210630  	54.247446 
702.647537  	54.422875 
704.084444  	54.701938 
705.521351  	54.899298 
706.958258  	54.995503 
708.395165  	55.148511 
709.832072  	55.361033 
711.268979  	55.560553 
712.705886  	55.745244 
714.142793  	55.928544 
715.579700  	56.123363 
717.016607  	56.292092 
718.453514  	56.449151 
719.890421  	56.660273 
721.327328  	56.849310 
722.764236  	57.025306 
724.201143  	57.227256 
725.638050  	57.395011 
727.074957  	57.524956 
728.511864  	57.736334 
729.948771  	57.977080 
731.385678  	58.182152 
732.822585  	58.406646 
734.259492  	58.632017 
735.696399  	58.806609 
737.133306  	59.009721 
738.570213  	59.260397 
740.007120  	59.460047 
741.444027  	59.632681 
742.880934  	59.822271 
744.317841  	59.994695 
745.754748  	60.204852 
747.191655  	60.454341 
748.628562  	60.652538 
750.065469  	60.854075 
751.502376  	61.096778 
752.939283  	61.323250 
754.376190  	61.550520 
755.813097  	61.752140 
757.250004  	61.900220 
758.686911  	62.109463 
760.123818  	62.380028 
761.560725  	62.558016 
762.997632  	62.674723 
764.434539  	62.883057 
765.871446  	63.147205 
767.308353  	63.368681 
768.745260  	63.590102 
770.182167  	63.848675 
771.619075  	64.094221 
773.055982  	64.283655 
774.492889  	64.454643 
775.929796  	64.699088 
777.366703  	64.968753 
778.803610  	65.163060 
780.240517  	65.355208 
781.677424  	65.581996 
783.114331  	65.787829 
784.551238  	65.983556 
785.988145  	66.179030 
787.425052  	66.427051 
788.861959  	66.733502 
790.298866  	66.969334 
791.735773  	67.156463 
793.172680  	67.358522 
794.609587  	67.514768 
796.046494  	67.685467 
797.483401  	67.946903 
798.920308  	68.254709 
800.357215  	68.546794 
801.794122  	68.767912 
803.231029  	68.955114 
804.667936  	69.153771 
806.104843  	69.365645 
807.541750  	69.621419 
808.978657  	69.863187 
810.415564  	70.100665 
811.852471  	70.393550 
813.289378  	70.590939 
814.726285  	70.723264 
816.163192  	70.978672 
817.600099  	71.277670 
819.037006  	71.552060 
820.473913  	71.801670 
821.910821  	71.989460 
823.347728  	72.186998 
824.784635  	72.404331 
826.221542  	72.631956 
827.658449  	72.886594 
829.095356  	73.110307 
830.532263  	73.377174 
831.969170  	73.672374 
833.406077  	73.853010 
834.842984  	74.054882 
836.279891  	74.322730 
837.716798  	74.519852 
839.153705  	74.737052 
840.590612  	75.005805 
842.027519  	75.232729 
843.464426  	75.465803 
844.901333  	75.733933 
846.338240  	75.983063 
847.775147  	76.204513 
849.212054  	76.437220 
850.648961  	76.660556 
852.085868  	76.863899 
853.522775  	77.120993 
854.959682  	77.356154 
856.396589  	77.535406 
857.833496  	77.804923 
859.270403  	78.038738 
860.707310  	78.159893 
862.144217  	78.404356 
863.581124  	78.700303 
865.018031  	78.871315 
866.454938  	79.048526 
867.891845  	79.307082 
869.328752  	79.568086 
870.765660  	79.761331 
872.202567  	79.925118 
873.639474  	80.142731 
875.076381  	80.369898 
876.513288  	80.590436 
877.950195  	80.824604 
879.387102  	81.028083 
880.824009  	81.235784 
882.260916  	81.444826 
883.697823  	81.602281 
885.134730  	81.755502 
886.571637  	81.946143 
888.008544  	82.185213 
889.445451  	82.408260 
890.882358  	82.561805 
892.319265  	82.748901 
893.756172  	82.951386 
895.193079  	83.097810 
896.629986  	83.264564 
898.066893  	83.444011 
899.503800  	83.613702 
900.940707  	83.777824 
902.377614  	83.898492 
903.814521  	84.060988 
905.251428  	84.286734 
906.688335  	84.468811 
908.125242  	84.608219 
909.562149  	84.742678 
910.999056  	84.892283 
912.435963  	85.021101 
913.872870  	85.127560 
915.309777  	85.328298 
916.746684  	85.545346 
918.183591  	85.689776 
919.620498  	85.869886 
921.057406  	86.015042 
922.494313  	86.098397 
923.931220  	86.249423 
925.368127  	86.406517 
926.805034  	86.544820 
928.241941  	86.702854 
929.678848  	86.826332 
931.115755  	86.937525 
932.552662  	87.053547 
933.989569  	87.180942 
935.426476  	87.322192 
936.863383  	87.407770 
938.300290  	87.501863 
939.737197  	87.645307 
941.174104  	87.733310 
942.611011  	87.794411 
944.047918  	87.894914 
945.484825  	88.026485 
946.921732  	88.140212 
948.358639  	88.192759 
949.795546  	88.279987 
951.232453  	88.407681 
952.669360  	88.485026 
954.106267  	88.579185 
955.543174  	88.688056 
956.980081  	88.774178 
958.416988  	88.883104 
959.853895  	88.966864 
961.290802  	89.045317 
962.727709  	89.152082 
964.164616  	89.208836 
965.601523  	89.250257 
967.038430  	89.318567 
968.475337  	89.401755 
969.912244  	89.496571 
971.349152  	89.548332 
972.786059  	89.607377 
974.222966  	89.709372 
975.659873  	89.766770 
977.096780  	89.795661 
978.533687  	89.821452 
979.970594  	89.871387 
981.407501  	89.972356 
982.844408  	90.023463 
984.281315  	90.053855 
985.718222  	90.111996 
987.155129  	90.121925 
988.592036  	90.164314 
990.028943  	90.241736 
991.465850  	90.269671 
992.902757  	90.329568 
994.339664  	90.382767 
995.776571  	90.381176 
997.213478  	90.394300 
998.650385  	90.394662 
1000.087292  	90.425444 
1001.524199  	90.483832 
1002.961106  	90.455328 
1004.398013  	90.437004 
1005.834920  	90.483678 
1007.271827  	90.502654 
1008.708734  	90.527229 
1010.145641  	90.572206 
1011.582548  	90.600827 
1013.019455  	90.623970 
1014.456362  	90.647403 
1015.893269  	90.688858 
1017.330176  	90.742300 
1018.767083  	90.790693 
1020.203991  	90.829876 
1021.640898  	90.849243 
1023.077805  	90.873282 
1024.514712  	90.881253 
1025.951619  	90.864244 
1027.388526  	90.876266 
1028.825433  	90.880649 
1030.262340  	90.867927 
1031.699247  	90.853551 
1033.136154  	90.783507 
1034.573061  	90.730990 
1036.009968  	90.745332 
1037.446875  	90.753326 
1038.883782  	90.766423 
1040.320689  	90.778134 
1041.757596  	90.797652 
1043.194503  	90.867981 
1044.631410  	90.916302 
1046.068317  	90.972193 
1047.505224  	91.092057 
1048.942131  	91.184504 
1050.379038  	91.242531 
1051.815945  	91.281306 
1053.252852  	91.307116 
1054.689759  	91.369557 
1056.126666  	91.420795 
1057.563573  	91.453962 
1059.000480  	91.497966 
1060.437387  	91.524305 
1061.874294  	91.550875 
1063.311201  	91.538802 
1064.748108  	91.510615 
1066.185015  	91.559467 
1067.621922  	91.601796 
1069.058829  	91.617512 
1070.495737  	91.639327 
1071.932644  	91.609127 
1073.369551  	91.596621 
1074.806458  	91.609787 
1076.243365  	91.598043 
1077.680272  	91.618074 
1079.117179  	91.616924 
1080.554086  	91.599280 
1081.990993  	91.616549 
1083.427900  	91.583687 
1084.864807  	91.563968 
1086.301714  	91.608197 
1087.738621  	91.631218 
1089.175528  	91.640634 
1090.612435  	91.610225 
1092.049342  	91.578778 
1093.486249  	91.622039 
1094.923156  	91.649578 
1096.360063  	91.672935 
1097.796970  	91.704550 
1099.233877  	91.675175 
1100.670784  	91.665831 
1102.107691  	91.679767 
1103.544598  	91.690602 
1104.981505  	91.750633 
1106.418412  	91.792805 
1107.855319  	91.821761 
1109.292226  	91.853165 
1110.729133  	91.828814 
1112.166040  	91.837790 
1113.602947  	91.883102 
1115.039854  	91.903885 
1116.476761  	91.928175 
1117.913668  	91.899692 
1119.350575  	91.878687 
1120.787483  	91.939413 
1122.224390  	91.973302 
1123.661297  	92.000205 
1125.098204  	92.037982 
1126.535111  	92.033419 
1127.972018  	92.036392 
1129.408925  	92.024132 
1130.845832  	92.023455 
1132.282739  	92.088799 
1133.719646  	92.112770 
1135.156553  	92.101633 
1136.593460  	92.100627 
1138.030367  	92.078699 
1139.467274  	92.080513 
1140.904181  	92.081348 
1142.341088  	92.071601 
1143.777995  	92.095307 
1145.214902  	92.087489 
1146.651809  	92.060906 
1148.088716  	92.050395 
1149.525623  	92.040533 
1150.962530  	92.078296 
1152.399437  	92.097704 
1153.836344  	92.061116 
1155.273251  	92.058986 
1156.710158  	92.057558 
1158.147065  	92.043394 
1159.583972  	92.052763 
1161.020879  	92.061654 
1162.457786  	92.082748 
1163.894693  	92.075581 
1165.331600  	92.046236 
1166.768507  	92.066672 
1168.205414  	92.062434 
1169.642322  	92.040922 
1171.079229  	92.072659 
1172.516136  	92.086246 
1173.953043  	92.076495 
1175.389950  	92.056395 
1176.826857  	92.021489 
1178.263764  	92.036603 
1179.700671  	92.060940 
1181.137578  	92.051470 
1182.574485  	92.046300 
1184.011392  	92.036218 
1185.448299  	92.039541 
1186.885206  	92.049699 
1188.322113  	92.049757 
1189.759020  	92.074623 
1191.195927  	92.069726 
1192.632834  	92.036295 
1194.069741  	92.040752 
1195.506648  	92.031508 
1196.943555  	92.015079 
1198.380462  	92.030979 
1199.817369  	92.042343 
1201.254276  	92.044701 
1202.691183  	92.019523 
1204.128090  	91.992474 
1205.564997  	92.015365 
1207.001904  	92.024384 
1208.438811  	92.009362 
1209.875718  	92.009537 
1211.312625  	91.998656 
1212.749532  	91.986591 
1214.186439  	91.982555 
1215.623346  	91.983809 
1217.060253  	91.994955 
1218.497160  	91.993765 
1219.934068  	91.996575 
1221.370975  	91.992861 
1222.807882  	91.970315 
1224.244789  	91.980541 
1225.681696  	91.993428 
1227.118603  	91.991124 
1228.555510  	92.001333 
1229.992417  	91.976113 
1231.429324  	91.941896 
1232.866231  	91.933333 
1234.303138  	91.922406 
1235.740045  	91.943753 
1237.176952  	91.956839 
1238.613859  	91.918728 
1240.050766  	91.896429 
1241.487673  	91.887079 
1242.924580  	91.894531 
1244.361487  	91.926235 
1245.798394  	91.920528 
1247.235301  	91.896558 
1248.672208  	91.865868 
1250.109115  	91.834971 
1251.546022  	91.851611 
1252.982929  	91.849321 
1254.419836  	91.817842 
1255.856743  	91.826745 
1257.293650  	91.826780 
1258.730557  	91.798251 
1260.167464  	91.766813 
1261.604371  	91.753556 
1263.041278  	91.788894 
1264.478185  	91.803220 
1265.915092  	91.784543 
1267.351999  	91.790365 
1268.788907  	91.773186 
1270.225814  	91.754174 
1271.662721  	91.774383 
1273.099628  	91.776495 
1274.536535  	91.765464 
1275.973442  	91.749439 
1277.410349  	91.732759 
1278.847256  	91.742883 
1280.284163  	91.737109 
1281.721070  	91.720082 
1283.157977  	91.725450 
1284.594884  	91.735414 
1286.031791  	91.758977 
1287.468698  	91.770208 
1288.905605  	91.763617 
1290.342512  	91.786520 
1291.779419  	91.814014 
1293.216326  	91.832951 
1294.653233  	91.831164 
1296.090140  	91.801532 
1297.527047  	91.817628 
1298.963954  	91.851909 
1300.400861  	91.848322 
1301.837768  	91.860966 
1303.274675  	91.888008 
1304.711582  	91.897032 
1306.148489  	91.900658 
1307.585396  	91.887427 
1309.022303  	91.895481 
1310.459210  	91.900518 
1311.896117  	91.876208 
1313.333024  	91.875337 
1314.769931  	91.893660 
1316.206838  	91.904959 
1317.643745  	91.915556 
1319.080653  	91.914458 
1320.517560  	91.926562 
1321.954467  	91.940480 
1323.391374  	91.936755 
1324.828281  	91.936649 
1326.265188  	91.920452 
1327.702095  	91.905724 
1329.139002  	91.906341 
1330.575909  	91.893875 
1332.012816  	91.868372 
1333.449723  	91.849724 
1334.886630  	91.827098 
1336.323537  	91.811773 
1337.760444  	91.802183 
1339.197351  	91.790236 
1340.634258  	91.807811 
1342.071165  	91.822573 
1343.508072  	91.834617 
1344.944979  	91.826894 
1346.381886  	91.805277 
1347.818793  	91.780896 
1349.255700  	91.743381 
1350.692607  	91.720897 
1352.129514  	91.750013 
1353.566421  	91.733726 
1355.003328  	91.679823 
1356.440235  	91.646731 
1357.877142  	91.610832 
1359.314049  	91.583649 
1360.750956  	91.532914 
1362.187863  	91.478876 
1363.624770  	91.518607 
1365.061677  	91.518801 
1366.498584  	91.450370 
1367.935491  	91.396146 
1369.372399  	91.338844 
1370.809306  	91.286942 
1372.246213  	91.219046 
1373.683120  	91.132567 
1375.120027  	91.091142 
1376.556934  	91.076480 
1377.993841  	91.031566 
1379.430748  	90.966681 
1380.867655  	90.909490 
1382.304562  	90.892584 
1383.741469  	90.873626 
1385.178376  	90.842715 
1386.615283  	90.801607 
1388.052190  	90.777442 
1389.489097  	90.765137 
1390.926004  	90.741891 
1392.362911  	90.732611 
1393.799818  	90.771092 
1395.236725  	90.815967 
1396.673632  	90.806155 
1398.110539  	90.849507 
1399.547446  	90.939090 
1400.984353  	91.030018 
1402.421260  	91.082832 
1403.858167  	91.049879 
1405.295074  	91.018355 
1406.731981  	91.072539 
1408.168888  	91.090597 
1409.605795  	91.093977 
1411.042702  	91.092849 
1412.479609  	91.129701 
1413.916516  	91.238890 
1415.353423  	91.257166 
1416.790330  	91.210546 
1418.227238  	91.235476 
1419.664145  	91.289286 
1421.101052  	91.380054 
1422.537959  	91.439633 
1423.974866  	91.487255 
1425.411773  	91.606205 
1426.848680  	91.588139 
1428.285587  	91.476888 
1429.722494  	91.418815 
1431.159401  	91.494730 
1432.596308  	91.562618 
1434.033215  	91.553902 
1435.470122  	91.510738 
1436.907029  	91.556520 
1438.343936  	91.591640 
1439.780843  	91.579414 
1441.217750  	91.591070 
1442.654657  	91.588796 
1444.091564  	91.566360 
1445.528471  	91.537834 
1446.965378  	91.513669 
1448.402285  	91.547190 
1449.839192  	91.549329 
1451.276099  	91.475885 
1452.713006  	91.460337 
1454.149913  	91.502157 
1455.586820  	91.522797 
1457.023727  	91.470438 
1458.460634  	91.414341 
1459.897541  	91.483941 
1461.334448  	91.542315 
1462.771355  	91.580013 
1464.208262  	91.617530 
1465.645169  	91.566721 
1467.082076  	91.482945 
1468.518984  	91.434406 
1469.955891  	91.396470 
1471.392798  	91.440349 
1472.829705  	91.483811 
1474.266612  	91.439586 
1475.703519  	91.467889 
1477.140426  	91.472238 
1478.577333  	91.451287 
1480.014240  	91.447832 
1481.451147  	91.384956 
1482.888054  	91.356459 
1484.324961  	91.387289 
1485.761868  	91.373386 
1487.198775  	91.313291 
1488.635682  	91.218189 
1490.072589  	91.131787 
1491.509496  	91.127350 
1492.946403  	91.113207 
1494.383310  	91.116769 
1495.820217  	91.117248 
1497.257124  	91.052303 
1498.694031  	90.996690 
1500.130938  	90.949731 
1501.567845  	90.936494 
1503.004752  	90.927096 
1504.441659  	90.847659 
1505.878566  	90.772153 
1507.315473  	90.694688 
1508.752380  	90.603398 
1510.189287  	90.641871 
1511.626194  	90.634280 
1513.063101  	90.550397 
1514.500008  	90.487960 
1515.936915  	90.425115 
1517.373822  	90.408565 
1518.810730  	90.395100 
1520.247637  	90.292263 
1521.684544  	90.253010 
