##TITLE=No Description
##DATA TYPE=INFRARED SPECTRUM
##XUNITS=1/CM
##YUNITS=%T
399.460154  	32.950989 
400.897061  	32.083357 
402.333968  	32.117246 
403.770875  	30.937681 
405.207782  	31.034101 
406.644689  	31.620054 
408.081596  	31.322968 
409.518503  	31.700603 
410.955410  	31.782387 
412.392317  	31.641239 
413.829224  	31.486556 
415.266131  	31.347289 
416.703038  	31.717754 
418.139945  	31.746658 
419.576852  	31.861615 
421.013759  	32.029652 
422.450666  	30.806370 
423.887574  	30.473987 
425.324481  	31.414402 
426.761388  	31.558377 
428.198295  	31.457133 
429.635202  	31.413437 
431.072109  	31.371713 
432.509016  	31.384280 
433.945923  	30.868319 
435.382830  	30.817519 
436.819737  	31.275850 
438.256644  	31.323447 
439.693551  	31.902230 
441.130458  	32.143561 
442.567365  	31.309807 
444.004272  	31.224257 
445.441179  	31.674042 
446.878086  	32.144295 
448.314993  	32.100010 
449.751900  	31.469166 
451.188807  	31.706998 
452.625714  	31.994241 
454.062621  	31.441436 
455.499528  	31.271130 
456.936435  	31.311504 
458.373342  	31.739269 
459.810249  	32.161562 
461.247156  	31.755349 
462.684063  	31.544497 
464.120970  	31.494775 
465.557877  	31.154670 
466.994784  	31.437061 
468.431691  	31.785478 
469.868598  	31.735861 
471.305505  	31.778093 
472.742413  	31.443245 
474.179320  	31.459733 
475.616227  	31.631311 
477.053134  	31.452653 
478.490041  	31.780083 
479.926948  	32.154575 
481.363855  	32.051503 
482.800762  	32.122260 
484.237669  	31.880349 
485.674576  	31.458740 
487.111483  	31.548662 
488.548390  	31.568976 
489.985297  	31.549497 
491.422204  	31.811554 
492.859111  	32.042463 
494.296018  	32.141285 
495.732925  	32.245702 
497.169832  	32.364843 
498.606739  	32.260339 
500.043646  	31.985734 
501.480553  	31.833172 
502.917460  	31.900179 
504.354367  	32.074949 
505.791274  	32.251960 
507.228181  	32.369600 
508.665088  	32.496523 
510.101995  	32.631784 
511.538902  	32.757717 
512.975809  	32.680143 
514.412716  	32.397260 
515.849623  	32.362633 
517.286530  	32.466775 
518.723437  	32.425157 
520.160344  	32.604593 
521.597251  	32.818970 
523.034159  	32.937277 
524.471066  	33.093870 
525.907973  	32.968568 
527.344880  	32.841613 
528.781787  	32.998444 
530.218694  	33.051034 
531.655601  	33.001046 
533.092508  	32.936644 
534.529415  	32.986203 
535.966322  	33.233592 
537.403229  	33.405955 
538.840136  	33.588168 
540.277043  	33.675694 
541.713950  	33.532596 
543.150857  	33.618595 
544.587764  	33.721892 
546.024671  	33.648509 
547.461578  	33.819169 
548.898485  	33.928002 
550.335392  	33.920036 
551.772299  	34.130429 
553.209206  	34.272165 
554.646113  	34.275990 
556.083020  	34.242315 
557.519927  	34.318087 
558.956834  	34.577518 
560.393741  	34.577260 
561.830648  	34.493154 
563.267555  	34.723318 
564.704462  	34.854006 
566.141369  	34.887344 
567.578276  	35.040433 
569.015183  	35.131858 
570.452090  	35.193279 
571.888997  	35.244953 
573.325905  	35.327482 
574.762812  	35.476051 
576.199719  	35.550839 
577.636626  	35.680534 
579.073533  	35.823997 
580.510440  	35.860365 
581.947347  	35.993602 
583.384254  	36.124509 
584.821161  	36.218127 
586.258068  	36.379971 
587.694975  	36.449998 
589.131882  	36.560586 
590.568789  	36.730226 
592.005696  	36.756799 
593.442603  	36.833766 
594.879510  	36.971002 
596.316417  	37.113775 
597.753324  	37.297542 
599.190231  	37.326246 
600.627138  	37.372787 
602.064045  	37.572126 
603.500952  	37.687480 
604.937859  	37.817754 
606.374766  	37.960252 
607.811673  	38.092811 
609.248580  	38.256525 
610.685487  	38.346886 
612.122394  	38.373459 
613.559301  	38.563589 
614.996208  	38.696458 
616.433115  	38.793384 
617.870022  	38.932290 
619.306929  	39.047545 
620.743836  	39.204389 
622.180744  	39.328895 
623.617651  	39.468510 
625.054558  	39.693818 
626.491465  	39.823697 
627.928372  	39.942476 
629.365279  	40.101768 
630.802186  	40.200930 
632.239093  	40.347946 
633.676000  	40.497171 
635.112907  	40.614280 
636.549814  	40.746577 
637.986721  	40.876243 
639.423628  	41.053631 
640.860535  	41.249632 
642.297442  	41.396072 
643.734349  	41.535613 
645.171256  	41.674053 
646.608163  	41.800073 
648.045070  	42.003359 
649.481977  	42.182731 
650.918884  	42.317213 
652.355791  	42.487654 
653.792698  	42.648776 
655.229605  	42.856376 
656.666512  	43.057589 
658.103419  	43.155241 
659.540326  	43.293255 
660.977233  	43.468793 
662.414140  	43.620709 
663.851047  	43.810735 
665.287954  	43.929168 
666.724861  	44.038740 
668.161768  	44.295095 
669.598675  	44.542721 
671.035582  	44.671693 
672.472490  	44.844188 
673.909397  	45.020949 
675.346304  	45.185152 
676.783211  	45.371170 
678.220118  	45.535365 
679.657025  	45.692575 
681.093932  	45.914866 
682.530839  	46.120640 
683.967746  	46.297607 
685.404653  	46.481849 
686.841560  	46.639492 
688.278467  	46.837479 
689.715374  	47.073418 
691.152281  	47.252910 
692.589188  	47.429458 
694.026095  	47.628218 
695.463002  	47.803240 
696.899909  	47.993463 
698.336816  	48.183132 
699.773723  	48.390314 
701.210630  	48.639492 
702.647537  	48.831828 
704.084444  	49.032390 
705.521351  	49.247727 
706.958258  	49.381276 
708.395165  	49.577667 
709.832072  	49.824340 
711.268979  	50.007715 
712.705886  	50.219331 
714.142793  	50.456477 
715.579700  	50.676548 
717.016607  	50.874702 
718.453514  	51.036595 
719.890421  	51.302263 
721.327328  	51.606704 
722.764236  	51.767371 
724.201143  	51.934035 
725.638050  	52.171399 
727.074957  	52.416535 
728.511864  	52.664822 
729.948771  	52.839988 
731.385678  	53.019481 
732.822585  	53.264196 
734.259492  	53.468941 
735.696399  	53.708644 
737.133306  	53.972009 
738.570213  	54.140377 
740.007120  	54.328809 
741.444027  	54.564713 
742.880934  	54.777137 
744.317841  	55.017905 
745.754748  	55.261870 
747.191655  	55.483988 
748.628562  	55.725149 
750.065469  	55.963146 
751.502376  	56.170592 
752.939283  	56.366004 
754.376190  	56.597800 
755.813097  	56.857409 
757.250004  	57.092490 
758.686911  	57.334400 
760.123818  	57.585787 
761.560725  	57.794752 
762.997632  	57.994878 
764.434539  	58.232453 
765.871446  	58.481083 
767.308353  	58.700621 
768.745260  	58.920523 
770.182167  	59.184566 
771.619075  	59.457844 
773.055982  	59.719573 
774.492889  	59.963591 
775.929796  	60.181125 
777.366703  	60.414431 
778.803610  	60.662385 
780.240517  	60.932157 
781.677424  	61.225724 
783.114331  	61.438085 
784.551238  	61.614759 
785.988145  	61.852591 
787.425052  	62.089814 
788.861959  	62.352536 
790.298866  	62.621172 
791.735773  	62.821193 
793.172680  	63.077356 
794.609587  	63.377505 
796.046494  	63.610010 
797.483401  	63.848695 
798.920308  	64.094002 
800.357215  	64.329241 
801.794122  	64.600320 
803.231029  	64.845262 
804.667936  	65.070219 
806.104843  	65.344725 
807.541750  	65.626351 
808.978657  	65.853198 
810.415564  	66.043225 
811.852471  	66.288489 
813.289378  	66.605539 
814.726285  	66.916758 
816.163192  	67.191071 
817.600099  	67.412816 
819.037006  	67.627582 
820.473913  	67.890702 
821.910821  	68.145330 
823.347728  	68.387354 
824.784635  	68.631094 
826.221542  	68.859920 
827.658449  	69.140815 
829.095356  	69.443804 
830.532263  	69.686980 
831.969170  	69.920833 
833.406077  	70.159272 
834.842984  	70.393270 
836.279891  	70.646904 
837.716798  	70.894356 
839.153705  	71.138318 
840.590612  	71.382876 
842.027519  	71.612577 
843.464426  	71.878918 
844.901333  	72.186891 
846.338240  	72.457147 
847.775147  	72.675280 
849.212054  	72.896684 
850.648961  	73.132468 
852.085868  	73.378074 
853.522775  	73.655821 
854.959682  	73.924304 
856.396589  	74.158997 
857.833496  	74.412240 
859.270403  	74.649987 
860.707310  	74.862662 
862.144217  	75.125546 
863.581124  	75.399972 
865.018031  	75.633011 
866.454938  	75.859023 
867.891845  	76.096624 
869.328752  	76.313557 
870.765660  	76.487244 
872.202567  	76.705791 
873.639474  	76.989873 
875.076381  	77.222948 
876.513288  	77.434246 
877.950195  	77.671731 
879.387102  	77.898973 
880.824009  	78.149156 
882.260916  	78.383170 
883.697823  	78.588216 
885.134730  	78.828789 
886.571637  	79.036615 
888.008544  	79.220609 
889.445451  	79.431559 
890.882358  	79.609316 
892.319265  	79.792943 
893.756172  	79.993279 
895.193079  	80.178307 
896.629986  	80.394953 
898.066893  	80.591463 
899.503800  	80.757930 
900.940707  	80.944977 
902.377614  	81.112097 
903.814521  	81.291833 
905.251428  	81.488696 
906.688335  	81.657435 
908.125242  	81.839174 
909.562149  	82.006299 
910.999056  	82.154296 
912.435963  	82.316294 
913.872870  	82.453956 
915.309777  	82.626879 
916.746684  	82.847216 
918.183591  	83.027611 
919.620498  	83.173539 
921.057406  	83.279969 
922.494313  	83.397640 
923.931220  	83.582460 
925.368127  	83.747303 
926.805034  	83.897853 
928.241941  	84.066674 
929.678848  	84.217422 
931.115755  	84.361385 
932.552662  	84.467651 
933.989569  	84.584388 
935.426476  	84.751247 
936.863383  	84.839803 
938.300290  	84.904034 
939.737197  	85.043718 
941.174104  	85.179912 
942.611011  	85.305867 
944.047918  	85.419241 
945.484825  	85.529494 
946.921732  	85.667135 
948.358639  	85.747707 
949.795546  	85.820134 
951.232453  	85.955252 
952.669360  	86.066252 
954.106267  	86.169024 
955.543174  	86.269244 
956.980081  	86.350513 
958.416988  	86.472309 
959.853895  	86.570577 
961.290802  	86.639466 
962.727709  	86.749767 
964.164616  	86.838102 
965.601523  	86.902629 
967.038430  	86.973698 
968.475337  	87.041663 
969.912244  	87.140503 
971.349152  	87.235123 
972.786059  	87.298793 
974.222966  	87.355856 
975.659873  	87.415567 
977.096780  	87.506747 
978.533687  	87.574837 
979.970594  	87.615917 
981.407501  	87.720128 
982.844408  	87.816389 
984.281315  	87.865473 
985.718222  	87.917276 
987.155129  	87.945049 
988.592036  	87.986094 
990.028943  	88.048322 
991.465850  	88.096711 
992.902757  	88.163292 
994.339664  	88.206894 
995.776571  	88.233481 
997.213478  	88.279284 
998.650385  	88.284400 
1000.087292  	88.292959 
1001.524199  	88.320597 
1002.961106  	88.322533 
1004.398013  	88.366442 
1005.834920  	88.414256 
1007.271827  	88.421940 
1008.708734  	88.458948 
1010.145641  	88.492764 
1011.582548  	88.524820 
1013.019455  	88.582280 
1014.456362  	88.617250 
1015.893269  	88.659359 
1017.330176  	88.710090 
1018.767083  	88.741706 
1020.203991  	88.774835 
1021.640898  	88.794204 
1023.077805  	88.845484 
1024.514712  	88.925847 
1025.951619  	88.931786 
1027.388526  	88.903235 
1028.825433  	88.901072 
1030.262340  	88.901247 
1031.699247  	88.881026 
1033.136154  	88.834804 
1034.573061  	88.826724 
1036.009968  	88.841119 
1037.446875  	88.816577 
1038.883782  	88.831922 
1040.320689  	88.882185 
1041.757596  	88.912522 
1043.194503  	88.952056 
1044.631410  	88.973438 
1046.068317  	89.030927 
1047.505224  	89.157009 
1048.942131  	89.219472 
1050.379038  	89.236358 
1051.815945  	89.283884 
1053.252852  	89.342930 
1054.689759  	89.416844 
1056.126666  	89.471693 
1057.563573  	89.505269 
1059.000480  	89.539524 
1060.437387  	89.561140 
1061.874294  	89.607067 
1063.311201  	89.643890 
1064.748108  	89.649155 
1066.185015  	89.675300 
1067.621922  	89.691209 
1069.058829  	89.731482 
1070.495737  	89.789181 
1071.932644  	89.759259 
1073.369551  	89.727425 
1074.806458  	89.724886 
1076.243365  	89.710585 
1077.680272  	89.760416 
1079.117179  	89.801971 
1080.554086  	89.786749 
1081.990993  	89.782935 
1083.427900  	89.751538 
1084.864807  	89.731759 
1086.301714  	89.744759 
1087.738621  	89.736333 
1089.175528  	89.749553 
1090.612435  	89.744227 
1092.049342  	89.720924 
1093.486249  	89.750631 
1094.923156  	89.753575 
1096.360063  	89.749574 
1097.796970  	89.780126 
1099.233877  	89.774683 
1100.670784  	89.786399 
1102.107691  	89.818389 
1103.544598  	89.823718 
1104.981505  	89.852674 
1106.418412  	89.887362 
1107.855319  	89.912346 
1109.292226  	89.915490 
1110.729133  	89.888817 
1112.166040  	89.909425 
1113.602947  	89.931425 
1115.039854  	89.926184 
1116.476761  	89.968073 
1117.913668  	89.999485 
1119.350575  	90.021256 
1120.787483  	90.058537 
1122.224390  	90.053277 
1123.661297  	90.063109 
1125.098204  	90.085011 
1126.535111  	90.096125 
1127.972018  	90.149013 
1129.408925  	90.161185 
1130.845832  	90.149077 
1132.282739  	90.172775 
1133.719646  	90.144360 
1135.156553  	90.133609 
1136.593460  	90.171973 
1138.030367  	90.159738 
1139.467274  	90.155838 
1140.904181  	90.170456 
1142.341088  	90.174559 
1143.777995  	90.192699 
1145.214902  	90.173330 
1146.651809  	90.154349 
1148.088716  	90.166652 
1149.525623  	90.153493 
1150.962530  	90.153283 
1152.399437  	90.158993 
1153.836344  	90.155354 
1155.273251  	90.165873 
1156.710158  	90.132640 
1158.147065  	90.097854 
1159.583972  	90.108611 
1161.020879  	90.111826 
1162.457786  	90.116453 
1163.894693  	90.092675 
1165.331600  	90.073796 
1166.768507  	90.132775 
1168.205414  	90.144069 
1169.642322  	90.100978 
1171.079229  	90.102573 
1172.516136  	90.097454 
1173.953043  	90.100713 
1175.389950  	90.117352 
1176.826857  	90.103272 
1178.263764  	90.107210 
1179.700671  	90.102538 
1181.137578  	90.082682 
1182.574485  	90.095756 
1184.011392  	90.094221 
1185.448299  	90.089556 
1186.885206  	90.091717 
1188.322113  	90.073218 
1189.759020  	90.079763 
1191.195927  	90.080180 
1192.632834  	90.057250 
1194.069741  	90.055351 
1195.506648  	90.046126 
1196.943555  	90.059824 
1198.380462  	90.087096 
1199.817369  	90.054041 
1201.254276  	90.027184 
1202.691183  	90.025401 
1204.128090  	90.015204 
1205.564997  	90.030298 
1207.001904  	90.027126 
1208.438811  	89.997467 
1209.875718  	89.991641 
1211.312625  	89.991057 
1212.749532  	89.997988 
1214.186439  	90.002346 
1215.623346  	89.991570 
1217.060253  	89.996321 
1218.497160  	90.003165 
1219.934068  	90.013970 
1221.370975  	90.015381 
1222.807882  	89.978322 
1224.244789  	89.971627 
1225.681696  	89.996917 
1227.118603  	89.994121 
1228.555510  	89.987236 
1229.992417  	89.980255 
1231.429324  	89.982971 
1232.866231  	90.006903 
1234.303138  	90.013866 
1235.740045  	90.010736 
1237.176952  	89.991170 
1238.613859  	89.957950 
1240.050766  	89.960540 
1241.487673  	89.967011 
1242.924580  	89.959070 
1244.361487  	89.952510 
1245.798394  	89.922242 
1247.235301  	89.908330 
1248.672208  	89.923714 
1250.109115  	89.921815 
1251.546022  	89.920502 
1252.982929  	89.915016 
1254.419836  	89.897180 
1255.856743  	89.894333 
1257.293650  	89.888091 
1258.730557  	89.878055 
1260.167464  	89.880548 
1261.604371  	89.885429 
1263.041278  	89.885589 
1264.478185  	89.869055 
1265.915092  	89.853919 
1267.351999  	89.852064 
1268.788907  	89.844250 
1270.225814  	89.839293 
1271.662721  	89.827661 
1273.099628  	89.817240 
1274.536535  	89.827462 
1275.973442  	89.813715 
1277.410349  	89.785257 
1278.847256  	89.772444 
1280.284163  	89.766320 
1281.721070  	89.788097 
1283.157977  	89.801644 
1284.594884  	89.794022 
1286.031791  	89.813480 
1287.468698  	89.818277 
1288.905605  	89.820465 
1290.342512  	89.851325 
1291.779419  	89.852336 
1293.216326  	89.855663 
1294.653233  	89.868229 
1296.090140  	89.858566 
1297.527047  	89.877750 
1298.963954  	89.892047 
1300.400861  	89.894189 
1301.837768  	89.895830 
1303.274675  	89.915508 
1304.711582  	89.910709 
1306.148489  	89.921073 
1307.585396  	89.913939 
1309.022303  	89.925213 
1310.459210  	89.951208 
1311.896117  	89.943537 
1313.333024  	89.925112 
1314.769931  	89.914097 
1316.206838  	89.922484 
1317.643745  	89.943025 
1319.080653  	89.932209 
1320.517560  	89.938777 
1321.954467  	89.954309 
1323.391374  	89.944141 
1324.828281  	89.950770 
1326.265188  	89.939113 
1327.702095  	89.897988 
1329.139002  	89.900314 
1330.575909  	89.901151 
1332.012816  	89.907848 
1333.449723  	89.919408 
1334.886630  	89.899180 
1336.323537  	89.873606 
1337.760444  	89.838984 
1339.197351  	89.800446 
1340.634258  	89.812832 
1342.071165  	89.846842 
1343.508072  	89.856191 
1344.944979  	89.846938 
1346.381886  	89.835733 
1347.818793  	89.837315 
1349.255700  	89.815485 
1350.692607  	89.775294 
1352.129514  	89.756616 
1353.566421  	89.741751 
1355.003328  	89.722682 
1356.440235  	89.715078 
1357.877142  	89.675554 
1359.314049  	89.651373 
1360.750956  	89.613624 
1362.187863  	89.540388 
1363.624770  	89.526391 
1365.061677  	89.557029 
1366.498584  	89.585218 
1367.935491  	89.562424 
1369.372399  	89.458615 
1370.809306  	89.394530 
1372.246213  	89.381285 
1373.683120  	89.327295 
1375.120027  	89.264097 
1376.556934  	89.222473 
1377.993841  	89.186604 
1379.430748  	89.159136 
1380.867655  	89.103724 
1382.304562  	89.040193 
1383.741469  	89.026661 
1385.178376  	89.014629 
1386.615283  	89.014627 
1388.052190  	89.029230 
1389.489097  	89.043109 
1390.926004  	89.083503 
1392.362911  	89.087583 
1393.799818  	89.052406 
1395.236725  	89.028907 
1396.673632  	89.099222 
1398.110539  	89.195510 
1399.547446  	89.223459 
1400.984353  	89.210087 
1402.421260  	89.229657 
1403.858167  	89.238892 
1405.295074  	89.239965 
1406.731981  	89.295155 
1408.168888  	89.364909 
1409.605795  	89.431254 
1411.042702  	89.443668 
1412.479609  	89.373345 
1413.916516  	89.335157 
1415.353423  	89.360772 
1416.790330  	89.426389 
1418.227238  	89.469205 
1419.664145  	89.471944 
1421.101052  	89.536678 
1422.537959  	89.531081 
1423.974866  	89.432744 
1425.411773  	89.446541 
1426.848680  	89.553269 
1428.285587  	89.630395 
1429.722494  	89.667923 
1431.159401  	89.577080 
1432.596308  	89.515340 
1434.033215  	89.557054 
1435.470122  	89.592034 
1436.907029  	89.616485 
1438.343936  	89.590190 
1439.780843  	89.574078 
1441.217750  	89.587658 
1442.654657  	89.565606 
1444.091564  	89.564735 
1445.528471  	89.567125 
1446.965378  	89.531591 
1448.402285  	89.517076 
1449.839192  	89.536119 
1451.276099  	89.553483 
1452.713006  	89.533431 
1454.149913  	89.468189 
1455.586820  	89.414612 
1457.023727  	89.406506 
1458.460634  	89.430899 
1459.897541  	89.482534 
1461.334448  	89.493747 
1462.771355  	89.434354 
1464.208262  	89.345164 
1465.645169  	89.284803 
1467.082076  	89.336968 
1468.518984  	89.414911 
1469.955891  	89.433424 
1471.392798  	89.377583 
1472.829705  	89.223404 
1474.266612  	89.162940 
1475.703519  	89.201642 
1477.140426  	89.221817 
1478.577333  	89.264762 
1480.014240  	89.275747 
1481.451147  	89.215332 
1482.888054  	89.143681 
1484.324961  	89.079457 
1485.761868  	89.032056 
1487.198775  	89.093347 
1488.635682  	89.123684 
1490.072589  	89.062276 
1491.509496  	89.009600 
1492.946403  	88.947912 
1494.383310  	88.910304 
1495.820217  	88.864101 
1497.257124  	88.838826 
1498.694031  	88.868417 
1500.130938  	88.836914 
1501.567845  	88.759335 
1503.004752  	88.696927 
1504.441659  	88.634565 
1505.878566  	88.579667 
1507.315473  	88.415009 
1508.752380  	88.355199 
1510.189287  	88.445647 
1511.626194  	88.472784 
1513.063101  	88.467539 
1514.500008  	88.398197 
1515.936915  	88.159532 
1517.373822  	88.020763 
1518.810730  	88.143642 
1520.247637  	88.194793 
1521.684544  	88.263887 
